eeg_1,eeg_2,eeg_3,eeg_4
805.4579,794.9817,797.8022,817.1429
817.9487,797.8022,796.5934,958.97437
801.4286,799.81683,800.6227,684.17584
780.4762,794.17584,794.9817,582.6374
787.72894,796.99634,791.75824,774.43225
808.68134,794.17584,792.1612,951.31866
807.47253,803.0403,799.41394,899.7436
805.05493,792.1612,793.7729,911.4286
785.31134,797.8022,793.36993,698.68134
761.13556,788.5348,789.34064,551.2088
767.98535,784.10254,788.93774,726.4835
787.326,796.5934,791.75824,938.4249
773.22345,798.20514,793.7729,706.7399
794.17584,800.6227,795.78754,933.1868
804.65204,806.6667,795.78754,954.94507
792.96704,802.6374,792.96704,771.6117
765.56775,783.69965,788.5348,587.8755
768.3883,789.34064,790.9524,694.2491
799.011,794.9817,789.34064,919.4872
796.1905,804.65204,791.3553,912.23444
772.8205,798.60803,789.7436,714.3956
756.30035,792.96704,788.93774,563.2967
816.337,786.9231,790.54944,967.8388
799.011,787.72894,793.7729,813.91943
765.9707,786.9231,783.69965,601.1722
779.2674,784.10254,776.8498,661.6117
808.2784,789.7436,785.31134,908.60803
814.3223,792.96704,789.34064,978.71796
815.12823,799.41394,788.5348,839.304
797.3993,801.02563,786.52014,636.2271
784.10254,790.54944,786.52014,649.12085
792.1612,787.326,787.326,870.7326
801.4286,797.3993,791.75824,966.63007
797.3993,801.4286,796.99634,854.61536
767.5824,793.7729,792.5641,633.00366
756.7033,789.7436,787.326,609.6337
778.86444,795.38464,791.75824,839.707
789.7436,801.02563,793.36993,951.7216
767.1795,794.9817,786.9231,835.6777
742.1978,786.52014,784.10254,614.0659
728.0952,789.34064,786.9231,569.34064
759.92676,795.78754,786.52014,783.69965
795.38464,793.36993,786.52014,934.3956
786.9231,795.78754,790.9524,857.03296
758.315,797.8022,788.93774,637.03296
737.76556,792.96704,785.7143,547.98535
767.5824,792.96704,792.96704,748.6447
807.0696,796.99634,803.44324,945.6777
774.83514,789.7436,800.6227,886.4469
752.27106,789.34064,801.4286,671.685
765.16486,786.9231,803.0403,574.57874
778.0586,785.7143,802.6374,736.9597
809.0842,794.17584,802.23444,931.1722
814.3223,796.1905,801.8315,927.1429
776.4469,787.72894,799.41394,727.6923
756.30035,786.52014,795.78754,572.1612
776.04395,792.5641,795.38464,718.8278
801.02563,796.1905,798.60803,936.4103
807.8755,792.5641,803.8461,946.08057
793.7729,787.72894,805.05493,770
768.3883,784.90845,803.44324,585.8608
794.17584,783.2967,795.78754,900.54944
761.9414,780.87915,800.6227,676.52014
806.6667,788.93774,800.2198,942.8571
790.54944,788.5348,801.02563,775.64105
758.71796,786.1172,790.9524,579.011
750.65936,786.52014,793.7729,657.1795
788.5348,786.9231,801.8315,891.685
803.0403,787.326,801.8315,947.6923
787.326,782.49084,799.41394,809.0842
767.5824,780.87915,798.60803,611.2454
776.4469,783.2967,799.81683,646.7033
811.9048,784.10254,797.8022,880
807.8755,791.3553,795.78754,979.92676
791.3553,791.75824,796.5934,873.1502
796.1905,790.9524,794.9817,664.43225
792.1612,794.17584,792.1612,651.13556
804.2491,801.8315,791.75824,884.83514
816.7399,804.65204,791.75824,1009.7436
818.7546,800.2198,795.78754,909.41394
815.9341,798.20514,797.8022,693.8461
807.8755,800.6227,793.7729,644.68866
812.71063,801.4286,790.54944,849.7802
829.2308,800.6227,794.17584,997.25275
836.4835,799.41394,796.5934,936.0073
813.1135,794.57874,792.5641,725.6777
801.02563,794.57874,791.75824,637.8388
813.91943,793.7729,790.14655,825.2015
829.6337,794.57874,789.34064,1002.49084
838.9011,808.68134,793.36993,965.82416
816.337,805.4579,788.93774,747.03296
794.17584,788.1319,782.49084,616.8865
803.0403,792.1612,783.2967,805.8608
815.5311,798.20514,787.326,989.59705
813.91943,800.6227,792.96704,959.7802
795.78754,805.05493,796.99634,766.3736
776.4469,795.78754,788.93774,606.8132
779.67035,783.69965,784.10254,742.6007
785.7143,786.1172,791.75824,938.022
796.99634,786.52014,795.38464,940.4396
783.69965,782.0879,795.78754,781.28204
755.09155,787.326,801.8315,620.5128
772.4176,797.3993,802.6374,726.08057
784.5055,788.93774,791.75824,917.0696
778.46155,783.69965,784.5055,941.2454
767.1795,791.75824,784.10254,781.28204
736.9597,785.7143,779.2674,580.2198
739.3773,781.28204,775.2381,656.77655
768.7912,777.6557,778.86444,873.95605
755.89746,770.40295,782.8938,927.5458
740.18317,766.3736,782.49084,796.5934
726.8865,761.9414,776.04395,586.26373
719.6337,761.13556,763.1502,600.7692
745.42126,772.01465,770.80585,836.8865
747.03296,766.3736,778.0586,927.1429
731.31866,756.30035,771.2088,796.1905
720.4396,759.92676,771.2088,584.2491
698.2784,758.315,775.2381,580.2198
720.0366,758.71796,775.64105,801.4286
756.30035,767.5824,773.6264,934.3956
749.45056,765.9707,777.25275,840.9158
706.7399,755.89746,782.0879,593.5165
716.8132,757.9121,780.4762,777.6557
748.24176,770,780.4762,931.5751
758.71796,784.90845,785.31134,871.53845
738.1685,779.67035,788.93774,661.6117
708.7546,761.13556,782.8938,556.8498
728.9011,764.35895,784.90845,752.27106
774.0293,768.7912,785.7143,936.4103
771.2088,766.77655,784.90845,892.0879
689.81683,753.8828,781.28204,547.1795
746.63007,764.7619,791.3553,700.696
728.0952,762.3443,787.72894,580.6227
769.19415,770,785.31134,916.6667
750.65936,767.1795,786.1172,732.52747
765.9707,771.2088,782.8938,938.022
742.1978,768.3883,783.69965,751.8681
731.31866,764.7619,785.31134,585.05493
752.27106,757.1062,784.90845,743.00366
770.80585,750.65936,786.9231,952.9304
784.10254,759.12085,790.54944,952.9304
783.69965,761.9414,787.326,774.0293
746.63007,751.8681,784.90845,597.9487
743.8095,750.65936,789.34064,707.5458
775.2381,759.5238,790.14655,936.8132
802.6374,765.9707,791.3553,984.7619
794.57874,771.6117,786.52014,812.3077
755.4945,776.04395,778.86444,603.9927
759.12085,776.04395,780.87915,686.5934
809.0842,786.1172,790.14655,938.022
819.15753,790.9524,796.5934,995.2381
780.07324,776.4469,789.34064,814.3223
762.3443,772.01465,782.8938,615.6777
772.8205,774.83514,781.28204,668.46155
797.3993,784.5055,782.8938,900.54944
807.0696,788.93774,788.93774,996.8498
792.5641,783.2967,792.96704,867.1062
772.8205,780.07324,790.54944,658.3883
785.7143,780.87915,791.75824,669.67035
807.0696,786.1172,791.75824,878.7912
820.3663,792.5641,788.93774,995.64105
830.84247,803.44324,791.3553,906.99634
818.3516,802.23444,789.7436,689.41394
791.75824,793.36993,787.326,640.2564
812.3077,792.96704,784.10254,996.04395
791.3553,790.9524,786.9231,846.55676
822.381,800.6227,783.69965,925.9341
813.91943,799.81683,784.90845,711.978
790.14655,793.36993,781.685,633.4066
806.6667,796.99634,782.0879,838.9011
837.6923,797.3993,784.90845,1006.1172
838.0952,798.60803,786.52014,959.3773
810.293,803.0403,787.72894,749.0476
795.78754,806.6667,785.31134,632.6007
806.6667,803.0403,784.10254,813.91943
813.5165,797.8022,783.69965,998.86444
819.15753,793.7729,788.1319,971.06226
799.011,790.54944,786.52014,774.0293
782.8938,788.93774,778.46155,629.7802
795.38464,789.34064,781.28204,781.28204
828.8278,794.9817,785.7143,994.0293
817.9487,795.38464,783.69965,838.9011
836.8865,797.8022,787.72894,1014.17584
796.5934,792.5641,780.4762,643.8828
828.022,796.5934,780.4762,977.9121
846.1539,799.81683,784.90845,993.22345
826.8132,803.44324,783.2967,809.4872
790.54944,799.41394,777.25275,626.9597
793.7729,795.78754,773.6264,740.989
808.2784,794.9817,786.9231,722.0513
834.4689,801.8315,790.9524,946.8865
849.3773,809.0842,794.9817,1021.02563
831.2454,805.4579,794.9817,881.2088
796.1905,800.6227,790.14655,655.9707
819.9634,801.4286,792.5641,929.15753
829.6337,806.26373,793.36993,1013.36993
814.3223,805.4579,789.34064,890.87915
793.36993,801.8315,787.72894,665.2381
792.1612,796.1905,790.14655,659.59705
811.50183,795.38464,791.75824,896.1172
824.7985,805.4579,793.7729,1024.652
827.619,805.4579,795.78754,924.7253
815.9341,798.60803,792.5641,693.44324
792.5641,798.60803,788.5348,691.4286
790.14655,795.38464,788.93774,642.674
826.4103,802.6374,794.57874,1016.1905
827.619,805.4579,797.8022,940.84247
805.8608,806.26373,794.57874,705.5311
785.31134,806.26373,788.5348,624.94507
803.0403,803.0403,787.72894,837.6923
821.1722,794.17584,786.1172,1002.49084
826.0073,800.2198,789.34064,955.7509
826.4103,809.89014,791.3553,751.4652
809.89014,801.8315,787.326,622.9304
805.8608,796.5934,791.3553,863.47986
811.50183,801.02563,789.7436,797.3993
829.6337,800.6227,790.9524,999.67035
822.7839,799.41394,796.99634,969.0476
807.8755,802.23444,796.99634,755.09155
784.5055,796.1905,786.9231,600.3663
784.5055,797.3993,789.34064,742.6007
809.89014,800.6227,796.5934,960.989
778.86444,794.17584,792.96704,749.0476
762.3443,796.1905,797.3993,558.0586
765.9707,801.4286,800.6227,680.54944
786.9231,806.6667,799.41394,919.0842
785.31134,804.2491,797.8022,958.97437
814.3223,803.0403,795.38464,961.79486
766.3736,805.8608,799.011,787.326
744.21246,799.41394,794.17584,562.49084
757.1062,788.93774,786.1172,636.63007
795.38464,799.011,799.011,962.1978
782.49084,792.5641,792.1612,888.0586
796.1905,804.65204,800.2198,819.9634
764.7619,797.8022,793.36993,588.2784
756.30035,793.36993,790.54944,616.08057
794.57874,801.8315,791.75824,866.7033
809.89014,805.4579,790.9524,979.5238
799.011,803.0403,794.57874,852.6007
772.8205,799.011,790.54944,605.2015
765.16486,796.1905,790.54944,595.9341
778.86444,793.7729,794.57874,842.9304
811.50183,799.011,794.17584,985.16486
807.0696,804.2491,794.9817,879.59705
778.86444,802.23444,794.17584,617.6923
772.4176,801.4286,794.17584,564.5055
774.43225,791.75824,792.96704,791.75824
778.0586,787.72894,795.78754,956.9597
783.2967,797.3993,799.81683,896.9231
740.58606,790.9524,801.02563,553.6264
770,794.57874,799.81683,778.46155
762.3443,796.1905,802.23444,653.1502
790.54944,796.1905,804.2491,985.56775
769.19415,795.78754,796.5934,582.23444
794.9817,796.99634,794.17584,778.0586
815.9341,809.0842,799.81683,1004.5055
819.5604,807.47253,806.26373,997.6557
808.68134,797.3993,805.05493,773.6264
790.9524,800.6227,801.02563,715.2015
798.20514,797.8022,805.8608,944.4689
785.31134,795.38464,796.1905,602.7839
802.6374,794.9817,788.93774,776.04395
844.5421,797.3993,792.96704,1023.0403
867.9121,805.8608,795.78754,1035.1282
847.3626,809.0842,794.57874,836.4835
796.5934,800.2198,793.36993,635.0183
801.8315,799.41394,792.1612,759.12085
826.8132,806.26373,795.38464,1010.54944
839.707,802.6374,794.9817,1044.7986
838.49817,804.2491,797.8022,857.8388
786.1172,799.81683,793.7729,620.9158
790.9524,794.9817,793.7729,703.1135
829.6337,799.011,798.60803,967.03296
820.3663,796.1905,795.38464,1023.8461
802.6374,796.99634,788.5348,860.65936
774.83514,796.1905,785.31134,631.79486
772.8205,795.38464,787.326,667.25275
838.9011,806.26373,799.41394,1037.5458
807.47253,799.81683,790.9524,919.89014
838.9011,806.26373,797.3993,916.26373
807.8755,803.0403,790.9524,672.49084
809.89014,803.0403,791.3553,662.8205
826.4103,800.2198,788.5348,908.20514
827.2161,796.5934,789.34064,1044.3956
833.663,801.4286,794.57874,946.08057
827.619,801.4286,793.36993,699.89014
820.3663,799.41394,789.34064,659.19415
834.0659,805.05493,789.7436,886.8498
846.9597,799.41394,788.1319,1035.1282
841.7216,796.5934,787.72894,963.00366
836.8865,808.2784,793.36993,722.8571
810.696,805.4579,787.72894,626.9597
820.3663,802.6374,784.90845,845.34796
867.1062,811.50183,794.57874,1037.5458
841.7216,804.65204,793.36993,968.6447
794.9817,792.96704,784.5055,702.71063
784.90845,792.96704,786.52014,582.23444
795.38464,796.1905,793.7729,779.67035
813.91943,799.011,798.20514,974.2857
803.44324,799.81683,800.2198,944.4689
780.07324,800.2198,799.81683,727.28937
761.53845,801.4286,796.1905,566.52014
794.57874,799.81683,802.23444,930.7692
803.8461,800.2198,807.47253,944.87177
771.6117,797.3993,799.81683,737.3626
753.8828,799.011,802.23444,557.25275
764.35895,799.011,794.17584,711.1722
778.0586,799.011,802.6374,694.2491
806.26373,801.4286,799.011,933.1868
817.5458,803.44324,798.20514,965.0183
812.71063,801.8315,794.17584,791.75824
776.04395,796.5934,792.96704,583.0403
761.53845,791.75824,784.90845,656.3736
817.1429,796.1905,796.5934,834.4689
785.31134,791.3553,790.14655,598.3516
782.49084,793.36993,791.75824,633.4066
811.9048,799.41394,798.60803,881.6117
826.0073,805.05493,795.38464,992.01465
800.6227,800.6227,785.7143,910.6227
804.65204,792.5641,792.5641,971.8681
797.8022,795.38464,797.8022,838.9011
782.0879,797.3993,801.4286,604.7985
757.1062,791.3553,795.38464,607.619
775.64105,794.57874,797.8022,838.0952
788.93774,798.20514,804.2491,948.0952
754.2857,790.54944,800.2198,609.6337
744.61536,789.34064,803.8461,571.75824
759.5238,798.60803,799.81683,788.5348
780.4762,805.05493,789.34064,937.2161
787.72894,802.6374,791.75824,872.3443
753.8828,791.75824,797.8022,630.18317
731.7216,784.5055,799.41394,539.92676
755.4945,789.34064,796.99634,742.1978
772.8205,797.8022,797.8022,915.05493
770.40295,801.8315,798.60803,869.12085
780.4762,796.5934,805.4579,843.73627
753.8828,803.44324,801.4286,650.32965
748.24176,794.9817,802.23444,527.8388
766.3736,793.7729,797.8022,721.2454
776.8498,803.0403,793.7729,930.7692
790.54944,806.26373,793.36993,911.4286
792.96704,809.0842,792.96704,711.5751
786.9231,803.8461,795.38464,724.4689
796.5934,811.50183,789.7436,945.6777
785.31134,807.0696,796.5934,572.96704
819.9634,812.71063,787.326,965.0183
813.1135,807.8755,785.31134,765.16486
787.72894,812.3077,786.9231,579.41394
800.6227,817.9487,788.1319,710.7692
823.9927,823.1868,800.2198,973.8828
827.2161,827.2161,793.7729,952.9304
791.3553,816.337,794.57874,789.7436
793.36993,819.15753,790.54944,690.2198
817.9487,819.5604,794.57874,935.6044
776.8498,815.12823,791.3553,592.71063
826.0073,812.71063,799.41394,990.40295
807.8755,811.9048,793.7729,834.4689
792.1612,814.3223,791.3553,612.0513
794.9817,811.0989,788.93774,664.0293
817.9487,813.5165,786.9231,916.26373
839.707,819.5604,791.3553,1018.60803
799.41394,810.696,787.72894,623.3333
800.2198,806.6667,787.326,638.24176
830.0366,813.1135,792.1612,897.72894
855.0183,816.337,794.9817,1029.8901
848.5714,815.9341,794.17584,922.71063
809.89014,812.3077,790.14655,674.10254
792.96704,801.8315,782.49084,631.39197
804.2491,801.02563,783.69965,868.71796
834.0659,808.68134,788.5348,1019.41394
822.7839,816.337,790.54944,876.3736
844.94507,815.5311,794.57874,930.3663
801.8315,809.4872,797.3993,687.3993
781.28204,803.8461,794.17584,606.4103
804.2491,803.0403,794.57874,828.8278
814.7253,801.8315,799.81683,1000.4762
795.78754,794.57874,800.2198,932.7839
773.22345,799.41394,794.57874,701.50183
752.674,803.0403,790.54944,579.81683
765.9707,795.38464,793.36993,776.04395
788.93774,796.99634,795.78754,981.13556
798.60803,805.4579,796.1905,951.31866
779.2674,801.02563,794.9817,718.4249
752.27106,793.7729,791.3553,554.43225
773.6264,800.6227,792.1612,728.49817
794.57874,805.4579,797.8022,953.73627
789.34064,798.60803,796.1905,951.31866
776.8498,796.5934,794.57874,751.06226
757.1062,793.7729,791.75824,569.34064
765.56775,796.1905,792.1612,711.5751
797.3993,800.6227,798.60803,948.9011
799.81683,796.1905,801.4286,976.30035
789.7436,794.9817,800.2198,803.0403
782.8938,798.20514,798.20514,597.9487
780.07324,794.17584,803.0403,686.5934
788.93774,794.57874,805.4579,933.5897
807.8755,801.02563,801.02563,1006.52014
807.47253,806.6667,799.011,848.97437
772.8205,808.2784,794.57874,612.8571
774.43225,798.20514,793.36993,666.8498
794.9817,799.41394,796.99634,918.68134
808.68134,811.50183,796.1905,1006.1172
801.4286,805.4579,795.38464,863.8828
763.95605,797.3993,794.57874,616.8865
753.0769,792.96704,792.96704,617.6923
780.07324,793.7729,796.5934,866.7033
802.23444,800.2198,802.23444,1004.90845
801.4286,807.47253,809.0842,902.1612
773.6264,803.0403,803.0403,648.315
813.1135,803.8461,799.41394,884.0293
746.63007,794.9817,792.5641,597.5458
801.02563,806.26373,796.99634,657.98535
790.14655,804.65204,791.75824,819.9634
780.07324,805.8608,792.1612,603.1868
815.5311,806.26373,796.5934,1005.7143
770.40295,798.60803,792.96704,836.08057
825.6044,805.8608,801.02563,958.1685
802.23444,805.05493,799.011,995.2381
801.02563,813.5165,800.6227,717.619
779.67035,807.0696,790.14655,576.99634
809.0842,810.696,786.1172,791.3553
837.6923,813.5165,791.75824,1013.36993
842.1245,810.696,799.81683,970.65936
801.8315,803.0403,792.96704,730.5128
763.5531,795.78754,786.1172,579.41394
793.7729,801.4286,792.1612,767.98535
821.978,802.23444,792.1612,992.01465
799.011,792.1612,785.7143,958.5714
779.2674,792.96704,786.1172,749.0476
760.7326,789.34064,784.10254,699.0842
763.5531,794.57874,785.7143,574.9817
788.5348,798.20514,795.38464,947.28937
794.17584,802.6374,799.41394,975.4945
799.41394,807.8755,799.41394,829.2308
766.3736,794.17584,791.75824,592.71063
771.2088,791.3553,787.72894,651.13556
813.1135,794.9817,794.57874,914.2491
809.89014,794.57874,797.3993,1007.326
799.81683,797.3993,798.60803,863.0769
762.74725,796.1905,794.17584,569.7436
762.3443,799.41394,794.57874,678.5348
795.38464,803.8461,800.2198,934.3956
814.3223,810.696,801.4286,993.22345
784.5055,800.6227,798.60803,774.83514
782.49084,796.5934,793.7729,610.84247
797.3993,799.41394,792.5641,881.2088
771.2088,793.7729,788.5348,621.31866
805.8608,801.02563,795.78754,999.2674
795.38464,798.60803,791.75824,874.35895
778.86444,795.78754,783.2967,622.52747
766.77655,790.14655,781.28204,590.696
789.34064,790.14655,785.7143,834.0659
809.89014,792.5641,788.5348,983.1502
787.326,789.7436,789.7436,884.0293
763.1502,792.5641,792.5641,639.45056
753.8828,792.96704,791.75824,568.93774
770,792.1612,790.9524,792.5641
796.1905,797.8022,795.38464,969.45056
804.65204,801.4286,793.7729,908.20514
776.4469,796.5934,792.96704,671.28204
750.65936,793.7729,793.7729,551.2088
767.1795,801.02563,790.14655,752.674
790.54944,800.6227,789.34064,958.1685
802.6374,794.57874,795.38464,917.47253
778.86444,795.78754,796.1905,688.20514
763.95605,796.5934,793.36993,547.5824
778.0586,805.05493,795.38464,722.8571
793.7729,810.293,794.9817,949.707
805.8608,806.6667,797.3993,954.5421
792.5641,810.696,794.9817,745.0183
793.7729,810.696,789.7436,944.4689
770.80585,814.7253,790.14655,755.89746
768.3883,812.3077,788.5348,694.2491
790.9524,811.9048,793.36993,926.7399
772.4176,812.3077,785.31134,557.6557
751.8681,806.6667,787.326,553.22345
751.4652,807.47253,785.31134,655.16486
765.9707,813.1135,784.90845,896.52014
777.6557,807.8755,786.1172,947.6923
777.6557,807.8755,786.52014,783.69965
761.9414,804.65204,783.2967,554.83514
758.71796,808.2784,778.86444,619.304
808.2784,825.2015,796.5934,991.2088
807.0696,825.6044,800.2198,853.4066
778.86444,822.381,800.6227,614.4689
758.315,811.9048,790.9524,612.4542
785.7143,819.5604,789.34064,894.5055
794.57874,810.696,794.9817,869.5238
818.3516,812.71063,802.23444,998.0586
782.49084,809.4872,797.3993,858.24176
755.89746,809.4872,787.326,595.9341
780.07324,813.5165,790.14655,596.337
811.0989,812.3077,799.81683,864.2857
807.8755,806.26373,803.8461,996.8498
786.9231,803.8461,795.78754,641.8681
760.7326,798.60803,789.7436,574.57874
774.83514,806.26373,792.1612,808.2784
812.71063,809.0842,801.4286,1002.0879
815.9341,803.44324,803.44324,937.2161
772.8205,799.81683,798.20514,676.9231
805.4579,807.0696,802.6374,886.04395
746.63007,791.75824,788.93774,548.7912
753.0769,788.1319,789.34064,763.95605
776.8498,791.3553,796.1905,980.7326
789.34064,797.3993,796.99634,946.4835
759.12085,798.20514,788.5348,563.69965
779.2674,796.99634,793.36993,759.5238
802.6374,800.2198,791.75824,985.16486
816.7399,811.9048,795.38464,978.315
793.36993,807.8755,792.96704,760.32965
774.43225,791.75824,784.90845,565.31134
795.38464,790.54944,790.54944,712.381
770,800.2198,791.75824,707.1429
812.3077,794.17584,794.9817,965.42126
805.05493,794.57874,796.5934,986.77655
792.5641,796.99634,794.9817,795.38464
776.8498,796.99634,791.3553,587.0696
778.86444,792.96704,790.54944,693.0403
804.65204,795.78754,795.38464,842.52747
784.10254,799.41394,793.36993,610.84247
792.5641,794.9817,787.326,660.80585
816.7399,788.93774,791.3553,908.20514
807.0696,796.99634,801.02563,866.30035
821.5751,797.8022,802.6374,1011.3553
783.2967,796.5934,797.8022,610.0366
820.7692,800.6227,795.78754,958.5714
834.4689,801.4286,796.5934,1014.9817
777.6557,795.78754,798.60803,633.8095
816.337,794.57874,795.78754,901.3553
828.8278,796.5934,795.78754,1019.81683
810.696,796.1905,793.7729,887.6557
787.326,793.36993,787.72894,622.9304
774.0293,792.96704,787.72894,603.1868
803.8461,798.20514,792.5641,868.71796
816.337,797.8022,790.14655,1018.60803
804.2491,792.96704,783.69965,906.5934
786.52014,791.75824,788.5348,648.315
780.87915,790.14655,791.3553,590.293
801.02563,791.75824,792.1612,823.5897
821.1722,798.60803,793.7729,1012.1612
821.5751,804.65204,795.38464,948.9011
779.2674,794.17584,791.3553,587.0696
788.1319,796.5934,790.9524,788.5348
820.7692,800.6227,790.9524,996.4469
803.8461,803.8461,798.20514,719.6337
764.7619,794.57874,792.1612,558.86444
781.685,796.5934,791.75824,746.63007
830.84247,803.0403,795.78754,966.2271
817.1429,796.99634,790.14655,962.1978
795.38464,794.9817,786.1172,728.0952
815.5311,801.02563,792.96704,973.8828
805.05493,803.0403,793.36993,696.26373
774.43225,792.1612,786.1172,541.53845
784.5055,794.9817,788.1319,702.3077
783.2967,800.6227,793.7729,770
773.22345,799.81683,796.5934,575.38464
778.86444,798.60803,796.1905,676.52014
810.293,801.02563,792.5641,948.0952
807.47253,800.6227,795.78754,921.9048
826.4103,801.8315,796.99634,997.6557
821.1722,800.2198,799.011,830.0366
774.0293,795.78754,788.1319,674.5055
788.1319,796.5934,794.17584,591.9048
804.65204,801.02563,795.38464,967.8388
813.5165,800.6227,792.1612,939.6337
782.49084,785.31134,788.5348,597.5458
808.2784,792.5641,789.7436,857.8388
778.86444,784.5055,788.1319,643.47986
797.3993,795.38464,796.1905,903.7729
805.8608,798.20514,801.02563,1008.93774
794.9817,794.17584,797.8022,880.80585
780.87915,796.1905,797.3993,622.1245
768.7912,796.1905,795.78754,583.44324
789.7436,793.36993,799.011,842.9304
806.6667,795.38464,803.8461,1007.326
831.2454,798.60803,792.96704,1019.41394
801.4286,794.17584,801.8315,898.93774
782.0879,794.57874,796.1905,634.61536
774.83514,795.78754,799.011,579.81683
806.26373,798.20514,805.05493,826.4103
824.7985,800.6227,803.8461,992.4176
808.68134,806.6667,802.6374,925.12823
783.2967,801.4286,798.60803,678.93774
765.56775,787.326,794.9817,568.1319
782.0879,788.5348,794.17584,784.5055
808.68134,796.5934,799.011,980.32965
819.9634,800.2198,801.4286,940.4396
788.93774,798.60803,794.17584,706.337
761.53845,792.96704,792.96704,565.31134
787.326,792.1612,794.17584,753.47986
810.696,794.57874,799.011,978.71796
807.0696,794.9817,800.6227,966.2271
791.3553,792.96704,796.5934,745.0183
775.2381,797.3993,800.2198,564.90845
788.1319,794.57874,801.4286,714.3956
815.5311,788.1319,796.1905,952.1245
811.9048,792.96704,801.4286,973.47986
796.99634,800.2198,801.4286,778.86444
774.43225,799.011,796.5934,570.54944
779.67035,795.38464,796.99634,691.8315
807.8755,800.2198,798.20514,961.79486
764.35895,798.60803,794.57874,657.5824
808.68134,804.2491,799.81683,1001.28204
755.89746,796.99634,794.17584,574.9817
787.326,802.23444,799.011,804.2491
805.4579,805.4579,805.05493,1000.07324
785.31134,794.9817,801.4286,833.663
757.9121,791.75824,799.011,589.89014
751.8681,791.3553,796.5934,621.31866
788.93774,792.96704,799.011,890.4762
802.23444,795.78754,800.6227,998.86444
803.8461,805.8608,803.0403,927.9487
792.5641,794.17584,797.8022,858.6447
797.3993,807.0696,795.38464,880.80585
767.5824,796.5934,787.72894,620.5128
747.4359,793.36993,792.5641,567.72894
773.6264,796.5934,792.5641,808.2784
799.011,794.17584,792.1612,981.53845
788.93774,796.5934,792.96704,897.72894
792.5641,803.8461,798.60803,986.77655
768.7912,794.17584,792.96704,829.6337
765.16486,796.99634,794.57874,640.65936
775.64105,792.1612,790.14655,602.381
757.50916,792.1612,790.54944,579.011
759.92676,790.14655,790.14655,554.0293
766.77655,788.5348,790.14655,776.4469
795.78754,796.1905,796.5934,972.27106
799.81683,795.38464,794.17584,926.337
770.40295,794.17584,794.17584,690.6227
758.71796,801.4286,790.9524,555.64105
774.83514,802.6374,786.9231,741.39197
799.41394,799.011,791.3553,963.00366
810.293,799.41394,793.7729,949.707
801.4286,798.60803,791.3553,720.84247
784.5055,792.96704,790.9524,556.04395
799.011,796.5934,793.36993,728.9011
825.2015,802.6374,796.99634,968.24176
814.7253,802.23444,796.1905,982.3443
804.2491,800.6227,791.3553,783.69965
778.0586,790.9524,783.69965,568.93774
773.22345,792.1612,786.9231,686.1905
811.0989,805.4579,791.3553,950.5128
813.91943,804.2491,793.7729,995.64105
793.36993,798.60803,799.81683,805.05493
779.2674,798.60803,794.17584,569.7436
782.8938,794.9817,790.9524,653.1502
808.68134,792.5641,796.5934,927.1429
823.5897,799.011,798.60803,1012.5641
804.65204,796.1905,794.9817,851.79486
789.7436,795.38464,792.96704,651.9414
810.293,796.1905,794.17584,901.75824
841.31866,805.8608,794.57874,1023.8461
780.4762,789.7436,791.3553,610.0366
834.0659,812.71063,797.8022,904.17584
809.89014,798.20514,794.57874,635.42126
818.7546,797.8022,796.99634,876.77655
809.0842,795.38464,793.7729,620.5128
832.8571,805.05493,796.5934,919.89014
793.36993,799.81683,798.20514,662.01465
836.8865,797.3993,790.9524,1018.60803
768.7912,791.3553,786.9231,610.0366
827.2161,803.44324,792.96704,1025.0549
815.12823,806.6667,794.57874,942.0513
798.20514,798.20514,794.17584,681.3553
804.65204,795.78754,787.72894,859.45056
773.22345,794.17584,794.17584,576.99634
767.98535,793.7729,797.8022,793.36993
788.5348,793.7729,797.3993,992.4176
782.49084,788.93774,794.17584,929.5604
762.3443,790.14655,793.36993,678.5348
754.68866,791.3553,791.75824,546.77655
775.2381,796.1905,794.9817,744.21246
798.20514,801.02563,796.5934,977.9121
770,791.3553,782.8938,570.14655
795.38464,790.14655,792.1612,749.85345
809.89014,793.7729,792.1612,979.92676
815.12823,796.1905,790.9524,990.80585
805.05493,800.2198,794.57874,956.9597
801.02563,794.17584,795.38464,783.2967
774.43225,784.5055,798.20514,707.9487
805.4579,796.1905,800.2198,963.00366
766.3736,782.8938,795.38464,576.5934
784.10254,799.011,787.72894,721.6484
810.696,792.96704,799.41394,1006.1172
796.5934,792.5641,799.011,824.7985
774.83514,792.96704,796.1905,584.65204
775.2381,789.34064,795.38464,661.6117
798.20514,790.54944,802.23444,938.022
817.1429,793.36993,807.8755,1008.93774
808.68134,792.5641,809.89014,835.2747
767.98535,788.93774,804.65204,579.41394
759.5238,785.31134,801.8315,621.31866
788.93774,788.5348,808.68134,889.2674
799.81683,795.78754,813.91943,995.2381
780.87915,794.17584,807.8755,853.4066
763.1502,790.9524,801.4286,599.9634
757.9121,784.10254,799.81683,590.293
776.8498,789.34064,796.1905,869.12085
761.9414,793.36993,797.8022,620.10986
755.4945,796.99634,801.4286,581.4286
775.2381,794.17584,803.44324,834.87177
789.7436,786.9231,801.4286,1006.9231
787.72894,791.3553,799.81683,924.3223
776.04395,793.36993,796.5934,672.0879
786.9231,791.75824,797.3993,596.337
815.5311,793.7729,802.6374,840.9158
786.1172,789.34064,801.02563,987.5824
774.43225,785.7143,801.8315,848.97437
838.0952,794.17584,802.6374,1027.0696
801.8315,798.60803,793.7729,722.0513
786.52014,795.38464,794.17584,589.89014
794.17584,790.9524,793.36993,782.49084
821.1722,795.78754,796.5934,1009.34064
833.2601,797.8022,797.8022,988.7912
798.20514,792.5641,794.9817,743.8095
768.3883,786.52014,788.1319,568.1319
782.49084,785.7143,786.9231,735.34796
803.8461,786.1172,792.1612,969.45056
805.8608,790.54944,797.8022,971.8681
837.6923,794.57874,794.9817,964.61536
784.10254,794.57874,799.41394,759.5238
779.2674,795.38464,798.60803,803.0403
762.3443,788.5348,796.99634,583.0403
813.1135,803.0403,801.4286,995.2381
787.326,799.41394,800.2198,826.4103
757.9121,792.5641,794.17584,572.1612
770.40295,789.34064,791.75824,687.8022
794.57874,797.3993,795.78754,955.34796
790.14655,796.1905,797.8022,992.01465
755.09155,788.5348,794.57874,556.4469
757.9121,783.69965,792.5641,648.71796
793.36993,794.57874,794.17584,904.17584
762.74725,790.54944,789.7436,620.10986
787.72894,794.17584,790.54944,885.64105
797.3993,792.5641,796.5934,987.5824
778.0586,787.326,799.81683,840.5128
771.2088,788.93774,792.96704,855.0183
780.4762,789.7436,795.78754,979.12085
794.17584,787.326,800.6227,890.07324
771.6117,781.685,799.011,642.674
760.32965,787.72894,793.36993,577.3993
781.28204,795.78754,794.9817,817.5458
755.09155,785.31134,802.23444,606.4103
763.95605,786.52014,796.5934,618.0952
800.6227,800.2198,801.8315,1001.685
805.4579,798.60803,809.4872,919.89014
776.4469,797.3993,805.05493,666.8498
744.61536,797.8022,790.14655,568.5348
767.5824,799.41394,788.1319,779.2674
811.50183,807.8755,790.54944,994.0293
800.6227,807.0696,793.7729,948.49817
755.09155,792.5641,796.5934,680.14655
745.42126,785.7143,791.3553,545.16486
765.9707,785.7143,788.1319,745.42126
788.5348,793.7729,794.9817,972.27106
789.7436,799.41394,801.8315,963.8095
762.74725,789.7436,796.99634,713.9927
735.7509,781.685,790.9524,541.53845
738.1685,782.0879,790.9524,717.2161
770,784.5055,791.3553,948.0952
786.9231,790.14655,790.54944,964.21246
780.07324,797.3993,791.75824,765.16486
762.3443,790.14655,794.9817,571.75824
772.4176,782.0879,798.60803,711.978
798.20514,785.7143,796.1905,950.10986
781.28204,787.72894,791.3553,966.63007
760.7326,787.72894,794.17584,782.0879
754.68866,787.72894,795.38464,569.7436
755.09155,785.31134,794.57874,667.6557
777.25275,786.52014,798.60803,942.4542
796.99634,788.5348,802.6374,1016.99634
786.9231,788.93774,805.05493,832.4542
759.92676,789.7436,800.6227,574.9817
758.315,794.9817,794.9817,629.3773
787.72894,797.3993,796.99634,904.57874
815.12823,796.1905,799.011,1005.7143
820.7692,802.23444,803.0403,878.7912
778.86444,799.81683,804.2491,616.4835
744.61536,796.1905,799.011,599.5604
755.89746,795.78754,801.02563,857.03296
788.5348,796.1905,801.02563,1001.685
801.02563,801.8315,795.78754,890.4762
772.4176,799.41394,792.96704,629.7802
757.9121,795.38464,800.6227,593.1135
796.1905,797.8022,808.2784,855.42126
818.7546,804.65204,807.47253,1017.8022
818.3516,804.65204,796.5934,917.47253
789.34064,792.1612,786.9231,654.35895
785.31134,794.9817,790.9524,585.05493
806.26373,804.2491,797.8022,811.0989
802.23444,799.011,796.99634,987.98535
800.2198,796.5934,796.99634,937.619
790.9524,799.81683,792.5641,694.65204
803.8461,812.3077,792.96704,728.9011
773.6264,798.20514,786.52014,574.17584
768.3883,803.0403,790.54944,562.0879
774.0293,794.17584,796.99634,736.9597
784.5055,798.60803,787.326,774.83514
804.2491,799.81683,804.2491,972.674
806.6667,803.0403,805.8608,962.6007
784.90845,799.41394,801.8315,751.06226
767.5824,794.9817,794.9817,562.8938
814.3223,804.65204,791.75824,978.315
826.0073,809.4872,795.38464,955.7509
782.49084,796.5934,797.3993,695.05493
830.0366,802.6374,803.0403,985.16486
811.50183,809.0842,799.81683,799.011
767.1795,800.2198,792.96704,564.5055
781.685,803.8461,793.7729,666.8498
810.696,803.44324,799.41394,942.8571
809.89014,789.34064,798.60803,1005.7143
790.54944,790.54944,798.20514,799.011
808.68134,796.5934,803.8461,944.87177
770.40295,794.9817,795.38464,577.3993
772.01465,795.38464,798.20514,661.6117
805.05493,798.60803,801.8315,915.05493
829.2308,796.99634,799.011,1012.1612
761.53845,797.8022,788.93774,609.2308
760.7326,793.36993,790.9524,620.10986
776.4469,794.57874,793.7729,874.35895
795.78754,800.6227,797.8022,990
782.49084,799.011,799.81683,869.92676
793.36993,796.99634,794.9817,866.7033
755.09155,794.9817,797.8022,608.4249
760.7326,792.96704,799.011,576.1905
786.9231,792.96704,807.47253,835.2747
810.696,795.78754,806.6667,999.2674
794.17584,794.57874,797.8022,897.72894
770,796.99634,794.17584,640.65936
766.3736,794.9817,792.5641,573.7729
783.69965,794.9817,799.011,804.65204
807.8755,798.20514,805.05493,987.5824
796.1905,795.78754,793.7729,930.3663
778.86444,796.1905,789.7436,686.99634
760.32965,791.3553,792.96704,574.17584
770.40295,792.1612,795.38464,775.2381
794.9817,793.36993,795.38464,987.5824
803.0403,791.75824,789.34064,968.24176
792.96704,795.78754,791.3553,741.79486
789.7436,792.96704,793.36993,590.696
795.78754,796.5934,794.9817,769.19415
808.68134,802.23444,796.5934,990.80585
770.40295,806.26373,790.9524,562.49084
787.72894,801.8315,791.75824,702.3077
802.6374,801.8315,794.9817,957.3626
809.0842,802.23444,796.1905,977.9121
800.2198,796.1905,791.75824,772.8205
756.30035,788.93774,788.5348,545.56775
757.50916,796.1905,795.38464,649.92676
795.78754,802.6374,796.5934,917.8755
795.38464,809.0842,798.20514,775.64105
817.9487,803.44324,797.8022,985.16486
811.50183,802.23444,799.011,981.13556
812.3077,804.2491,802.6374,819.5604
780.07324,805.05493,800.2198,904.17584
811.0989,809.4872,799.81683,1009.34064
793.7729,809.89014,805.05493,600.3663
829.6337,820.3663,799.41394,891.685
776.4469,809.89014,803.44324,653.1502
794.57874,813.1135,801.4286,638.6447
771.2088,793.36993,798.20514,619.707
798.60803,798.20514,794.9817,874.35895
832.0513,814.7253,797.3993,1018.20514
840.10986,816.337,800.2198,919.0842
801.8315,805.8608,796.5934,660
783.2967,801.4286,790.9524,612.0513
812.3077,807.8755,790.54944,855.82416
831.6484,809.89014,792.1612,1018.60803
822.381,806.6667,790.14655,929.9634
784.90845,803.0403,785.7143,662.01465
763.1502,801.02563,783.2967,584.2491
805.8608,804.65204,792.1612,826.4103
826.4103,804.2491,795.78754,1005.31134
805.05493,801.4286,796.1905,932.381
784.90845,800.2198,799.41394,678.5348
764.35895,793.36993,791.3553,559.2674
772.01465,790.14655,787.72894,763.1502
801.02563,794.57874,793.36993,971.4652
796.1905,798.20514,792.1612,944.87177
768.3883,792.1612,789.7436,698.68134
751.8681,787.72894,790.14655,536.7033
777.6557,792.96704,792.5641,731.7216
803.8461,797.8022,794.17584,980.32965
796.5934,796.5934,795.78754,970.2564
780.4762,794.17584,794.57874,739.3773
758.315,792.1612,788.93774,554.83514
771.6117,792.5641,788.5348,714.3956
800.2198,798.60803,794.9817,964.61536
799.41394,799.81683,794.17584,988.3883
787.326,801.02563,795.38464,787.326
762.74725,796.99634,796.1905,572.5641
764.7619,789.7436,791.75824,675.7143
797.3993,791.3553,795.78754,933.1868
796.99634,799.81683,794.17584,985.16486
781.28204,799.41394,794.57874,805.05493
761.13556,791.75824,791.3553,636.63007
780.07324,798.20514,794.57874,890.4762
793.7729,798.60803,796.1905,975.09155
789.34064,803.8461,793.36993,837.28937
767.98535,790.54944,794.57874,572.5641
766.3736,803.0403,788.93774,589.0842
769.19415,796.1905,788.93774,603.5897
795.78754,795.78754,793.7729,869.92676
811.50183,800.6227,796.99634,998.46155
809.4872,802.23444,801.02563,888.0586
791.75824,799.81683,805.05493,644.68866
777.25275,793.7729,801.02563,612.8571
781.28204,793.7729,793.7729,829.6337
801.4286,799.011,792.1612,982.74725
819.5604,808.68134,800.2198,918.68134
803.44324,806.6667,803.8461,671.28204
772.8205,797.3993,801.4286,601.1722
792.96704,798.20514,800.6227,828.8278
822.7839,803.0403,801.4286,994.83514
801.02563,803.0403,790.54944,689.81683
787.326,807.0696,793.36993,591.0989
824.7985,802.6374,795.78754,927.1429
808.2784,807.8755,790.9524,802.6374
824.7985,801.4286,789.34064,1002.49084
828.8278,800.6227,796.99634,967.8388
803.44324,794.17584,793.36993,720.4396
781.685,786.9231,786.9231,564.90845
807.0696,793.7729,790.9524,761.53845
821.978,801.02563,793.36993,977.50916
810.293,799.011,799.011,956.9597
777.25275,796.5934,792.1612,573.36993
804.2491,800.6227,801.4286,757.9121
780.4762,794.9817,787.72894,715.2015
809.89014,799.41394,792.1612,973.8828
829.2308,806.6667,794.17584,1006.52014
834.87177,810.293,792.1612,799.81683
797.8022,805.8608,789.34064,598.3516
788.1319,799.011,787.326,706.7399
815.5311,798.20514,788.5348,952.9304
838.0952,807.0696,797.3993,1017.8022
832.0513,811.9048,799.011,850.18317
802.23444,803.8461,796.5934,609.6337
802.23444,795.78754,792.1612,669.67035
835.6777,802.6374,792.96704,937.2161
846.55676,809.0842,799.81683,1034.7252
814.3223,803.8461,797.8022,880
791.3553,807.8755,795.38464,626.55676
798.60803,810.293,798.60803,662.8205
821.978,796.1905,794.17584,911.4286
828.022,793.7729,793.7729,1017.8022
813.1135,797.8022,801.02563,896.9231
780.4762,792.5641,799.011,633.00366
767.98535,788.1319,792.1612,610.4396
788.5348,791.75824,792.5641,857.4359
796.5934,798.20514,805.4579,905.78754
781.28204,797.3993,803.44324,654.7619
770.80585,799.81683,800.6227,591.9048
792.5641,803.44324,799.011,824.7985
805.4579,798.20514,796.99634,998.86444
790.54944,797.3993,795.78754,921.50183
771.2088,797.8022,799.81683,672.0879
765.9707,798.20514,801.8315,577.8022
771.6117,801.8315,795.78754,786.9231
797.8022,803.0403,796.5934,987.1795
800.6227,796.1905,798.20514,1000.87915
810.696,799.81683,803.8461,955.34796
797.8022,797.3993,794.9817,964.61536
818.7546,804.2491,794.57874,975.09155
797.8022,805.05493,796.1905,755.89746
766.77655,788.5348,794.17584,566.1172
767.1795,786.1172,795.38464,719.2308
768.7912,795.78754,799.81683,747.8388
796.99634,796.99634,806.6667,713.5897
769.59705,796.5934,805.05493,569.34064
792.96704,794.9817,798.20514,948.9011
799.41394,800.2198,794.9817,964.61536
784.10254,801.4286,792.96704,774.43225
771.2088,795.78754,795.38464,576.5934
803.8461,798.60803,797.3993,820.3663
769.19415,802.23444,794.9817,603.1868
777.6557,796.1905,793.36993,679.34064
812.71063,790.54944,792.96704,920.293
819.5604,797.3993,793.7729,988.7912
797.3993,802.23444,790.9524,834.0659
770.40295,801.4286,786.1172,591.0989
794.17584,799.81683,782.8938,628.97437
779.67035,796.5934,799.011,709.15753
811.50183,801.02563,805.8608,968.24176
819.5604,796.1905,802.6374,998.86444
828.8278,803.44324,786.1172,899.7436
828.4249,809.89014,794.9817,1011.3553
810.696,795.78754,793.36993,889.2674
823.5897,807.47253,794.17584,1007.72894
812.3077,805.8608,788.5348,867.1062
782.0879,796.5934,783.2967,610.4396
806.6667,798.20514,790.9524,835.6777
796.99634,803.44324,788.5348,875.56775
794.57874,798.60803,777.25275,610.84247
784.90845,796.5934,780.4762,614.4689
784.10254,794.9817,788.5348,650.7326
832.8571,803.44324,797.3993,994.43225
830.4396,799.81683,788.5348,915.05493
821.5751,798.60803,788.93774,693.44324
822.7839,803.0403,795.78754,987.98535
777.25275,788.5348,786.9231,579.81683
804.65204,794.57874,783.2967,682.5641
784.10254,793.7729,792.5641,769.59705
785.7143,794.17584,785.31134,602.381
801.4286,796.99634,790.14655,813.91943
836.08057,807.47253,796.5934,921.9048
815.5311,794.57874,795.78754,961.79486
812.71063,794.17584,799.011,927.9487
792.5641,796.5934,801.8315,716.0073
768.3883,798.60803,801.02563,575.38464
775.2381,803.0403,798.60803,727.6923
798.60803,803.44324,796.5934,921.50183
814.3223,807.47253,801.4286,933.5897
806.26373,808.2784,808.68134,762.74725
772.4176,804.2491,805.8608,605.6044
772.01465,801.02563,800.6227,726.8865
811.9048,796.99634,798.20514,933.9927
828.8278,801.4286,799.81683,965.82416
806.26373,801.4286,800.6227,788.93774
783.69965,799.41394,797.3993,587.8755
792.1612,799.41394,791.75824,681.3553
818.7546,801.02563,788.93774,915.05493
815.9341,799.81683,788.5348,962.6007
803.8461,796.5934,790.9524,809.0842
797.3993,795.38464,788.5348,609.6337
801.4286,800.2198,791.75824,655.9707
815.12823,804.2491,794.57874,877.5824
812.71063,795.38464,793.36993,945.2747
811.50183,793.7729,793.7729,813.1135
761.13556,789.7436,784.90845,603.5897
794.57874,799.81683,795.78754,836.8865
781.28204,793.7729,788.93774,598.7546
803.8461,803.0403,798.60803,946.4835
782.49084,801.8315,796.5934,621.31866
760.32965,797.3993,793.7729,585.4579
788.5348,798.20514,799.81683,805.05493
805.05493,800.6227,801.02563,937.2161
802.23444,802.23444,796.99634,842.1245
795.78754,805.4579,795.78754,852.1978
768.3883,798.20514,793.7729,641.06226
761.9414,786.52014,794.57874,577.3993
782.8938,789.34064,795.38464,766.77655
807.0696,796.5934,794.17584,927.1429
824.7985,803.0403,792.5641,875.56775
808.68134,802.6374,792.5641,674.90845
793.36993,798.20514,803.8461,597.5458
813.1135,800.2198,811.0989,770.40295
821.5751,802.6374,798.20514,920.696
793.7729,805.4579,790.9524,709.15753
803.8461,803.0403,791.3553,895.7143
789.7436,801.8315,786.1172,575.78754
802.23444,797.8022,789.7436,733.73627
834.87177,801.4286,799.011,936.4103
827.2161,792.1612,801.02563,908.60803
783.69965,785.7143,798.20514,713.9927
753.0769,788.93774,793.7729,567.72894
780.07324,792.96704,794.57874,693.0403
794.57874,795.78754,794.57874,908.20514
798.20514,798.60803,795.38464,936.0073
781.685,800.2198,795.78754,772.01465
759.12085,799.011,790.54944,593.5165
785.7143,805.8608,785.31134,678.1319
814.7253,814.3223,792.96704,891.28204
815.9341,810.696,800.6227,931.978
801.4286,798.60803,805.4579,796.5934
769.19415,792.1612,801.8315,601.1722
808.68134,801.02563,787.326,918.68134
780.4762,799.81683,792.1612,850.989
757.50916,794.57874,794.9817,636.2271
824.3956,801.4286,784.90845,806.6667
810.696,801.8315,793.36993,641.4652
801.8315,794.17584,794.9817,643.0769
817.9487,799.011,795.78754,830.0366
820.7692,800.6227,796.99634,921.50183
816.7399,802.23444,798.60803,838.9011
789.34064,783.69965,791.75824,622.1245
807.8755,801.4286,798.60803,656.3736
798.20514,781.685,793.7729,808.68134
817.5458,794.17584,799.41394,931.978
810.696,792.1612,797.8022,853.4066
788.5348,788.5348,796.5934,649.92676
773.22345,787.326,799.011,606.4103
792.1612,791.3553,803.44324,802.23444
803.8461,796.1905,807.0696,926.337
803.8461,800.6227,805.4579,877.5824
790.14655,804.65204,805.4579,696.6667
770,802.6374,803.0403,601.5751
794.9817,798.60803,799.81683,770.40295
822.7839,801.8315,805.8608,956.55676
818.3516,800.6227,803.44324,928.3516
776.4469,790.54944,797.8022,637.03296
788.5348,791.3553,801.4286,788.1319
807.0696,792.5641,797.3993,743.8095
826.4103,792.1612,801.4286,965.0183
818.7546,789.34064,796.5934,944.87177
788.1319,781.28204,793.7729,780.4762
763.5531,777.25275,792.96704,638.6447
797.3993,782.49084,796.1905,764.35895
827.2161,794.57874,802.23444,965.0183
827.619,793.36993,798.20514,971.8681
826.4103,792.1612,795.78754,828.022
794.17584,792.1612,793.36993,669.67035
794.9817,792.96704,794.57874,749.85345
815.5311,793.7729,798.20514,942.8571
812.3077,793.7729,793.36993,965.0183
803.0403,796.99634,790.54944,827.2161
775.2381,792.96704,790.14655,660
767.1795,790.54944,788.5348,706.337
788.5348,787.72894,786.52014,897.72894
803.8461,787.326,787.72894,954.94507
802.23444,791.3553,785.7143,839.304
788.93774,789.7436,784.90845,661.6117
796.99634,790.14655,788.5348,682.1612
811.0989,794.57874,794.9817,878.3883
818.3516,795.38464,793.36993,953.3333
822.381,793.36993,785.7143,846.9597
791.3553,792.96704,783.69965,667.6557
782.0879,792.96704,788.5348,662.8205
815.9341,792.96704,792.1612,852.6007
828.8278,795.78754,795.38464,964.61536
827.619,798.60803,794.9817,882.4176
814.7253,797.3993,791.3553,693.44324
786.1172,793.36993,792.5641,661.2088
809.4872,794.57874,792.1612,830.84247
826.8132,795.38464,792.5641,942.8571
813.1135,790.14655,791.75824,873.95605
799.81683,791.3553,789.7436,715.6044
781.28204,791.3553,784.10254,646.7033
796.1905,796.1905,786.1172,795.78754
816.7399,796.1905,792.1612,940.4396
813.91943,788.5348,796.99634,913.0403
791.3553,790.54944,799.81683,744.21246
760.32965,789.34064,790.14655,636.63007
802.6374,789.34064,792.96704,920.293
771.6117,786.1172,785.7143,768.7912
789.7436,785.31134,792.96704,897.326
768.7912,796.1905,797.3993,628.5714
772.8205,790.14655,792.5641,745.42126
774.0293,786.52014,794.17584,726.8865
803.0403,790.14655,795.78754,898.93774
817.1429,796.99634,799.41394,906.5934
793.36993,794.57874,795.38464,779.67035
770.80585,797.8022,796.99634,649.92676
786.9231,800.6227,799.011,737.3626
819.9634,803.44324,799.81683,924.3223
824.7985,805.8608,799.011,940.4396
803.8461,806.6667,795.78754,825.6044
785.7143,801.4286,792.5641,671.685
776.4469,792.5641,795.38464,709.5604
791.75824,794.17584,791.75824,875.56775
799.011,797.8022,788.1319,918.68134
794.17584,805.4579,800.2198,831.6484
767.5824,799.011,794.57874,658.7912
755.4945,787.72894,780.4762,667.25275
790.14655,788.93774,786.1172,853.00366
800.2198,798.60803,790.9524,932.381
784.90845,800.2198,791.75824,839.707
757.9121,790.14655,795.38464,659.59705
751.06226,792.1612,795.38464,646.30035
774.43225,793.7729,796.5934,829.2308
793.36993,791.75824,800.6227,927.9487
792.96704,798.20514,799.81683,864.2857
757.1062,796.1905,796.5934,691.02563
758.71796,791.75824,794.9817,645.09155
789.7436,788.5348,797.3993,815.5311
803.8461,795.38464,799.011,932.7839
798.60803,804.2491,801.02563,882.4176
783.2967,798.20514,796.5934,711.978
775.2381,789.7436,792.5641,651.13556
784.5055,791.3553,797.8022,792.5641
810.293,801.02563,800.2198,924.7253
816.7399,804.2491,799.41394,904.57874
786.9231,794.17584,791.75824,731.7216
766.3736,791.75824,789.34064,628.97437
786.1172,803.0403,800.6227,769.59705
803.0403,807.8755,801.4286,917.0696
804.65204,805.05493,793.7729,889.2674
783.69965,803.8461,788.1319,749.85345
763.5531,800.6227,785.7143,648.315
800.2198,793.36993,780.4762,902.5641
802.23444,796.99634,788.1319,909.81683
776.04395,799.81683,794.17584,791.3553
760.32965,796.5934,792.1612,654.35895
770.80585,792.5641,786.52014,725.2747
792.96704,795.78754,790.14655,912.23444
811.50183,801.02563,796.1905,946.8865
796.5934,806.26373,797.8022,827.619
765.9707,804.2491,799.81683,700.696
780.87915,796.99634,784.5055,757.50916
778.46155,801.02563,803.0403,759.12085
804.65204,801.8315,803.44324,926.337
811.0989,803.44324,802.6374,975.89746
811.9048,805.8608,805.05493,870.7326
789.34064,800.2198,800.6227,708.3516
779.67035,801.02563,793.36993,718.022
778.0586,799.81683,789.34064,870.7326
784.90845,794.9817,792.96704,939.6337
799.81683,794.17584,799.011,865.09155
789.34064,792.96704,796.1905,707.5458
783.69965,798.60803,791.3553,687.8022
795.78754,801.4286,790.9524,845.7509
804.65204,804.65204,800.2198,938.8278
800.2198,807.47253,807.0696,875.56775
789.34064,800.2198,808.68134,722.0513
770.80585,792.1612,802.23444,672.8938
763.95605,791.75824,794.57874,801.02563
782.8938,798.60803,793.36993,919.0842
778.46155,792.1612,797.3993,736.1539
790.9524,801.4286,795.38464,883.22345
771.6117,784.90845,797.3993,813.91943
790.14655,789.34064,796.99634,944.4689
815.12823,796.5934,796.99634,915.4579
771.6117,782.8938,797.8022,675.31134
818.7546,799.41394,795.78754,775.64105
795.78754,787.72894,798.20514,818.7546
811.9048,794.57874,795.78754,956.55676
815.9341,797.8022,793.36993,938.022
791.75824,797.3993,790.14655,794.17584
766.3736,794.9817,785.7143,691.4286
786.52014,795.38464,789.34064,800.2198
809.0842,790.14655,796.99634,697.47253
817.9487,796.1905,800.2198,973.47986
817.9487,795.78754,803.0403,984.7619
795.78754,797.3993,794.9817,828.022
784.10254,801.02563,789.7436,701.9048
797.8022,796.5934,790.54944,801.8315
804.2491,796.99634,790.14655,953.3333
809.4872,807.0696,789.34064,973.0769
831.6484,812.71063,793.36993,871.9414
810.293,805.4579,793.7729,734.5421
805.8608,799.81683,797.8022,795.78754
822.381,794.57874,799.41394,964.21246
816.7399,790.9524,799.011,994.0293
797.8022,791.75824,805.05493,875.56775
770.40295,794.17584,801.02563,729.304
779.67035,796.5934,797.8022,765.9707
811.50183,803.0403,800.2198,931.1722
826.4103,804.65204,799.81683,992.01465
821.1722,802.23444,796.5934,896.52014
808.2784,801.02563,794.17584,740.18317
784.90845,794.9817,793.36993,719.2308
831.6484,805.05493,799.41394,971.06226
832.4542,809.4872,795.78754,896.9231
794.17584,792.5641,798.60803,871.53845
768.7912,792.96704,798.20514,669.2674
797.8022,798.60803,798.20514,722.0513
791.75824,793.7729,796.5934,823.9927
826.8132,798.60803,799.011,937.619
807.0696,799.41394,798.60803,872.3443
778.46155,803.44324,794.17584,708.7546
773.6264,800.6227,790.9524,659.19415
803.8461,795.78754,796.1905,813.91943
823.9927,791.75824,799.011,928.3516
801.02563,792.1612,795.38464,880.80585
786.9231,803.0403,791.75824,725.6777
775.2381,805.4579,788.1319,644.2857
784.5055,799.81683,787.72894,775.2381
839.304,805.05493,799.41394,913.8461
806.26373,801.8315,798.60803,772.8205
791.3553,794.9817,796.5934,663.6264
821.5751,797.8022,793.36993,927.1429
815.5311,797.3993,794.9817,766.77655
811.50183,793.7729,800.2198,797.3993
834.4689,792.96704,789.34064,918.2784
798.60803,794.57874,796.1905,672.8938
807.0696,797.3993,799.81683,753.47986
834.0659,801.8315,801.02563,940.84247
832.4542,797.8022,802.6374,913.8461
772.01465,790.9524,795.78754,642.674
805.05493,797.8022,798.60803,806.26373
785.31134,800.2198,796.1905,703.1135
811.0989,805.4579,799.41394,890.07324
838.49817,792.1612,793.7729,920.696
817.5458,801.8315,800.6227,946.8865
815.5311,801.8315,797.3993,829.6337
793.7729,807.0696,798.20514,662.4176
781.28204,801.8315,794.57874,687.8022
806.26373,805.05493,794.57874,866.7033
836.4835,814.7253,795.78754,946.08057
826.4103,807.0696,792.96704,852.1978
780.87915,798.20514,789.34064,669.2674
777.6557,800.2198,793.36993,667.6557
821.978,805.05493,802.23444,871.53845
811.0989,810.696,794.57874,870.32965
840.10986,810.293,798.20514,965.82416
784.5055,804.2491,794.9817,694.65204
785.31134,798.60803,791.75824,664.0293
808.2784,800.2198,790.14655,835.2747
835.2747,799.011,795.38464,954.94507
837.6923,805.8608,800.6227,898.1319
806.6667,807.8755,799.41394,720.4396
790.54944,801.4286,794.9817,648.315
796.99634,799.011,791.3553,792.5641
807.47253,805.05493,794.57874,929.15753
805.8608,806.26373,797.8022,886.04395
784.90845,799.41394,796.5934,715.2015
764.35895,796.1905,791.75824,612.0513
784.10254,798.60803,794.9817,751.06226
815.5311,801.4286,797.8022,918.68134
820.3663,802.23444,797.3993,894.5055
812.71063,804.2491,799.41394,741.79486
789.7436,803.0403,796.1905,641.06226
783.69965,801.8315,791.75824,749.0476
809.4872,799.011,795.78754,922.3077
829.2308,801.4286,799.41394,929.15753
820.7692,805.05493,796.1905,780.07324
790.9524,801.8315,794.9817,647.9121
808.68134,807.47253,795.38464,740.989
853.8095,810.293,796.1905,928.3516
855.82416,811.50183,799.011,954.5421
795.78754,804.65204,791.3553,673.2967
806.26373,803.0403,786.1172,728.9011
818.7546,810.293,799.011,820.7692
833.2601,805.8608,792.5641,913.8461
851.39197,809.0842,799.81683,971.8681
842.1245,809.0842,797.8022,846.55676
803.44324,804.2491,796.1905,668.0586
787.326,803.8461,794.9817,701.0989
811.9048,805.4579,792.96704,882.8205
828.022,803.8461,795.78754,943.663
819.5604,802.23444,799.011,853.8095
790.14655,797.3993,797.8022,680.54944
782.0879,793.36993,801.02563,685.78754
799.011,795.78754,804.65204,868.315
800.6227,799.41394,800.2198,944.87177
790.14655,801.4286,796.99634,848.97437
776.04395,805.05493,794.17584,678.5348
762.74725,805.8608,792.96704,650.7326
782.8938,806.6667,799.41394,836.08057
801.02563,803.8461,801.8315,946.08057
765.16486,797.8022,790.9524,844.5421
746.2271,799.41394,792.5641,675.7143
753.0769,799.011,792.5641,631.39197
768.7912,801.4286,786.9231,796.1905
809.4872,809.0842,793.7729,951.7216
818.7546,807.47253,799.81683,912.6374
801.02563,803.8461,799.81683,747.8388
780.07324,801.8315,787.72894,653.95605
803.8461,812.3077,786.1172,785.31134
832.0513,819.9634,794.17584,937.2161
817.1429,813.1135,789.7436,901.3553
786.9231,810.293,786.9231,734.1392
776.8498,809.89014,789.7436,634.61536
796.99634,811.9048,788.93774,748.6447
807.47253,816.337,787.72894,890.87915
806.26373,814.7253,789.7436,882.8205
803.44324,815.5311,797.8022,751.06226
773.22345,813.5165,798.60803,611.6484
747.8388,807.0696,788.5348,677.72894
778.0586,808.68134,786.9231,844.94507
798.20514,813.5165,794.17584,873.95605
780.07324,812.71063,790.14655,750.2564
764.7619,809.4872,783.69965,595.5311
770,809.89014,786.9231,653.5531
806.6667,813.5165,792.96704,852.6007
827.619,816.7399,795.78754,911.8315
804.2491,814.3223,797.3993,795.78754
754.68866,802.6374,794.9817,622.52747
759.5238,799.81683,788.93774,657.98535
797.8022,803.44324,788.1319,840.10986
805.05493,798.60803,790.14655,913.44324
801.02563,794.9817,792.5641,830.4396
790.9524,802.6374,793.7729,667.6557
772.8205,796.5934,786.1172,650.7326
788.93774,790.54944,786.9231,812.3077
822.7839,790.14655,796.5934,850.18317
823.5897,796.99634,796.1905,925.9341
759.5238,786.1172,796.1905,642.27106
781.685,784.10254,794.9817,672.8938
777.6557,788.1319,790.54944,906.5934
812.71063,792.5641,804.2491,965.0183
814.3223,788.5348,799.81683,928.3516
761.53845,786.9231,789.34064,791.75824
789.34064,790.9524,792.96704,766.3736
768.3883,794.17584,786.1172,681.75824
793.36993,795.78754,791.75824,821.978
836.4835,799.81683,800.6227,983.1502
793.7729,791.3553,800.6227,863.8828
772.01465,782.8938,799.41394,701.50183
754.68866,778.0586,794.57874,654.35895
784.90845,790.9524,801.02563,826.8132
841.31866,803.8461,804.2491,979.12085
797.3993,802.6374,793.7729,822.381
771.2088,801.4286,786.52014,711.5751
789.7436,796.5934,790.9524,826.0073
826.8132,801.4286,798.20514,994.0293
849.3773,810.696,802.6374,1011.3553
801.8315,805.8608,800.6227,823.1868
832.0513,806.6667,799.81683,873.1502
826.8132,804.65204,801.8315,975.09155
830.4396,805.05493,798.60803,1006.9231
804.65204,805.8608,798.20514,896.9231
799.81683,801.4286,796.99634,747.03296
780.4762,800.6227,792.96704,740.989
853.4066,809.89014,791.75824,1014.9817
829.2308,807.8755,793.7729,922.71063
792.1612,806.6667,790.54944,759.92676
792.96704,805.4579,791.75824,784.5055
811.50183,802.23444,797.8022,946.08057
841.31866,807.47253,797.3993,998.86444
834.4689,806.26373,794.9817,898.93774
794.17584,800.6227,794.9817,729.707
788.1319,799.81683,792.96704,725.6777
826.4103,807.0696,790.9524,959.3773
786.52014,801.02563,788.93774,786.9231
812.71063,801.4286,792.96704,879.19415
834.0659,803.8461,793.36993,950.5128
828.4249,806.26373,797.3993,894.5055
796.5934,805.8608,796.99634,724.0659
786.9231,801.8315,794.9817,672.49084
794.57874,799.41394,795.38464,826.4103
808.2784,798.20514,788.93774,920.293
816.7399,798.60803,790.54944,865.4945
794.9817,800.6227,791.75824,718.022
777.25275,801.4286,790.54944,664.0293
794.57874,804.65204,796.5934,829.6337
817.5458,808.2784,800.2198,985.56775
823.1868,800.6227,793.36993,963.4066
786.1172,800.2198,796.5934,738.1685
790.14655,799.41394,798.60803,885.2381
819.15753,802.23444,803.44324,1048.4249
821.5751,806.26373,808.68134,1044.3956
801.8315,801.8315,807.47253,874.35895
782.49084,791.3553,799.011,745.82416
772.8205,787.72894,793.7729,850.18317
807.47253,792.5641,798.60803,1009.7436
814.7253,797.3993,800.2198,1011.3553
789.34064,801.4286,797.8022,860.65936
813.91943,796.99634,794.17584,811.50183
762.74725,796.1905,793.7729,713.5897
767.1795,788.1319,794.57874,793.7729
755.09155,802.23444,792.96704,747.4359
782.8938,800.6227,796.99634,919.89014
801.4286,806.26373,796.1905,963.4066
800.2198,792.96704,800.2198,948.0952
790.14655,793.36993,800.2198,956.55676
761.9414,791.3553,797.3993,806.6667
749.85345,800.2198,794.17584,668.46155
782.49084,806.6667,788.5348,834.4689
765.9707,800.6227,784.5055,664.43225
786.1172,803.44324,788.1319,707.9487
817.1429,806.6667,792.1612,886.04395
819.15753,800.6227,791.75824,947.28937
801.8315,799.81683,792.1612,844.5421
784.10254,800.6227,790.9524,671.28204
770.80585,796.99634,790.9524,674.5055
801.4286,802.23444,794.57874,860.2564
829.6337,803.44324,793.36993,943.663
823.9927,797.3993,788.5348,847.76556
791.75824,794.17584,782.0879,668.46155
775.64105,798.60803,784.5055,646.7033
811.50183,803.8461,792.5641,814.3223
842.52747,808.2784,795.78754,920.696
821.1722,805.05493,791.75824,855.82416
785.31134,802.6374,790.14655,635.82416
807.8755,803.8461,788.1319,793.36993
824.3956,802.23444,785.31134,920.696
828.022,801.02563,788.1319,872.3443
810.696,802.23444,790.14655,707.1429
779.2674,797.3993,790.14655,622.52747
785.7143,788.93774,786.52014,734.94507
818.3516,790.14655,785.31134,883.22345
825.6044,795.78754,788.93774,889.2674
787.72894,797.8022,786.9231,687.3993
794.9817,796.1905,788.93774,739.3773
776.04395,794.17584,786.9231,630.989
834.0659,796.1905,787.72894,919.0842
845.7509,796.5934,792.1612,934.7985
834.87177,801.8315,790.9524,791.3553
801.8315,803.8461,783.2967,651.53845
804.65204,800.6227,782.8938,735.7509
803.8461,798.20514,787.72894,747.8388
827.619,799.41394,785.7143,912.6374
838.49817,803.0403,784.5055,944.4689
817.1429,796.1905,782.49084,809.0842
787.72894,792.5641,782.49084,644.68866
792.96704,793.36993,784.10254,707.1429
816.7399,793.36993,786.52014,894.90845
837.6923,796.99634,787.72894,948.9011
826.4103,799.41394,788.5348,829.2308
789.34064,796.1905,790.54944,687.3993
791.75824,793.7729,789.34064,643.8828
815.12823,804.65204,799.81683,879.19415
836.08057,803.8461,802.6374,942.4542
828.022,803.44324,797.3993,839.304
787.326,803.0403,797.3993,651.9414
774.83514,796.1905,796.99634,647.1062
809.4872,799.41394,799.81683,831.6484
840.9158,811.50183,802.6374,933.1868
836.08057,810.293,795.78754,842.52747
800.2198,803.0403,790.54944,658.3883
791.3553,802.23444,789.34064,629.7802
818.7546,801.8315,792.96704,801.8315
840.9158,804.2491,798.60803,936.4103
849.7802,805.05493,797.3993,867.1062
805.4579,798.60803,786.52014,674.10254
766.77655,790.9524,780.87915,611.6484
804.2491,795.78754,788.5348,768.3883
837.6923,805.05493,793.7729,904.9817
832.0513,804.2491,794.57874,873.1502
810.696,798.60803,793.36993,705.9341
778.0586,796.5934,785.7143,608.8278
792.1612,796.5934,780.07324,725.6777
830.0366,800.6227,781.685,880
819.15753,793.7729,781.685,867.9121
794.17584,789.34064,779.2674,701.9048
780.07324,790.9524,782.0879,597.5458
782.0879,791.3553,783.2967,716.4103
800.2198,794.17584,787.326,878.7912
811.50183,800.2198,793.7729,871.9414
785.7143,799.011,792.96704,716.8132
743.4066,794.57874,792.1612,580.2198
746.63007,794.17584,790.14655,657.1795
786.9231,793.36993,789.34064,836.4835
807.47253,793.36993,794.57874,872.3443
787.326,796.1905,791.75824,737.3626
774.83514,797.3993,788.1319,591.50183
788.93774,797.8022,793.7729,654.7619
800.6227,802.6374,802.23444,830.84247
811.50183,803.0403,803.44324,884.0293
799.81683,800.6227,801.4286,778.46155
766.3736,792.96704,795.78754,609.6337
765.16486,785.31134,791.3553,630.58606
806.26373,792.96704,796.5934,807.8755
828.022,799.41394,799.011,890.87915
815.12823,794.9817,792.5641,798.60803
783.2967,795.38464,793.7729,628.5714
807.8755,793.36993,789.7436,803.8461
825.6044,793.7729,790.54944,902.5641
819.15753,798.60803,792.1612,820.7692
804.2491,796.1905,790.54944,645.09155
773.22345,791.3553,787.326,600.3663
772.4176,786.52014,786.9231,772.4176
800.2198,789.34064,794.9817,907.3993
792.5641,795.78754,796.1905,631.79486
766.77655,798.20514,799.011,678.1319
795.78754,797.8022,802.6374,855.0183
756.7033,796.99634,796.5934,618.9011
773.6264,796.1905,797.3993,765.16486
802.23444,799.011,799.41394,915.05493
814.7253,802.23444,801.02563,906.5934
785.7143,797.3993,795.38464,718.022
761.13556,799.41394,792.96704,620.9158
786.9231,802.23444,796.1905,768.7912
827.2161,796.5934,795.78754,916.6667
837.6923,799.011,796.1905,905.38464
808.2784,805.4579,799.011,741.39197
790.9524,801.4286,794.17584,701.0989
782.8938,805.05493,796.1905,603.9927
819.15753,801.02563,797.8022,866.7033
809.89014,796.99634,797.8022,828.8278
821.1722,798.20514,797.8022,857.4359
805.4579,788.5348,796.1905,710.3663
772.8205,787.326,792.1612,535.4945
777.6557,790.54944,791.75824,578.60803
815.9341,800.6227,794.17584,758.315
821.1722,799.41394,794.17584,811.50183
828.022,801.4286,796.5934,874.35895
787.72894,796.5934,794.57874,583.0403
809.4872,800.2198,792.1612,724.87177
791.75824,791.3553,798.20514,663.6264
790.14655,790.14655,790.14655,675.7143
753.0769,792.5641,787.72894,485.93405
765.9707,795.78754,787.326,678.93774
785.7143,801.8315,796.1905,775.64105
772.01465,801.02563,798.20514,681.3553
733.3333,803.44324,790.54944,497.61905
762.3443,792.1612,788.1319,477.47253
709.9634,793.7729,790.14655,489.96338
743.00366,792.5641,796.1905,685.78754
772.4176,801.8315,797.8022,810.293
748.6447,804.2491,800.6227,725.6777
719.6337,803.44324,801.4286,536.7033
722.0513,802.6374,798.20514,502.85715
757.50916,798.60803,798.20514,706.7399
782.49084,799.011,805.05493,854.61536
772.4176,797.8022,799.011,770
749.0476,797.8022,793.7729,577.8022
734.1392,798.20514,801.4286,511.3187
750.65936,791.75824,802.6374,668.46155
761.53845,789.34064,799.41394,831.6484
768.7912,799.81683,801.02563,797.3993
744.21246,794.57874,806.6667,610.84247
740.58606,792.1612,807.0696,757.9121
722.4542,789.7436,809.0842,555.64105
782.0879,789.34064,807.47253,973.8828
749.0476,789.7436,805.05493,877.98535
794.17584,790.54944,807.8755,1016.1905
782.49084,798.20514,808.2784,1074.2124
763.5531,785.7143,805.4579,914.2491
787.326,801.4286,812.71063,1093.1501
766.77655,792.1612,805.4579,861.06226
737.3626,783.2967,799.011,742.6007
737.3626,791.3553,806.26373,737.76556
749.45056,787.72894,803.0403,839.707
778.0586,784.10254,805.05493,1033.1135
788.1319,784.90845,803.0403,1047.619
781.685,788.93774,804.2491,902.1612
764.35895,792.1612,807.47253,751.4652
797.8022,800.6227,795.78754,942.8571
778.86444,795.38464,798.60803,766.3736
792.96704,792.96704,804.65204,976.30035
807.47253,800.6227,792.5641,1066.9597
800.2198,794.57874,800.6227,1074.2124
791.75824,787.72894,794.17584,966.63007
778.86444,785.31134,799.41394,782.49084
770.80585,788.5348,793.36993,764.7619
761.53845,790.14655,806.26373,810.696
785.7143,792.1612,796.1905,1007.326
764.7619,786.9231,796.5934,764.35895
786.9231,783.69965,796.5934,968.6447
813.91943,794.17584,799.41394,1112.4908
811.50183,796.1905,802.23444,1027.0696
787.326,792.96704,796.1905,805.05493
789.34064,796.5934,794.57874,770.80585
813.5165,794.17584,801.8315,965.0183
829.2308,796.5934,802.23444,1128.608
828.022,800.2198,801.4286,1082.2711
795.38464,794.17584,802.6374,871.53845
778.46155,790.54944,797.8022,795.38464
798.60803,794.17584,794.57874,956.55676
813.1135,789.34064,794.17584,1116.5201
803.0403,791.3553,796.5934,870.32965
776.4469,784.90845,795.78754,766.3736
804.65204,782.8938,791.75824,921.9048
829.2308,797.3993,794.9817,1105.238
824.3956,796.1905,794.57874,1090.7325
812.3077,789.34064,796.99634,904.57874
793.36993,786.52014,797.8022,776.8498
801.4286,789.7436,792.96704,899.34064
836.08057,800.6227,796.5934,1093.956
819.5604,786.1172,791.75824,1078.2417
846.9597,799.011,801.02563,1109.6703
782.0879,793.7729,800.2198,744.21246
810.696,792.1612,800.6227,917.8755
798.60803,793.7729,799.41394,848.5714
811.9048,789.7436,799.011,1047.2161
819.15753,793.36993,801.8315,1089.1208
811.50183,798.20514,802.23444,919.89014
777.6557,785.31134,795.38464,744.61536
780.07324,793.36993,796.5934,697.0696
797.3993,787.72894,790.9524,964.61536
813.91943,796.1905,794.17584,1044.7986
792.1612,795.38464,800.6227,906.5934
756.7033,798.20514,802.6374,683.36993
749.45056,796.99634,799.011,698.2784
772.01465,792.96704,801.02563,927.5458
749.85345,800.2198,804.65204,696.6667
777.6557,798.20514,807.8755,920.293
797.8022,796.99634,806.26373,1044.3956
790.9524,791.3553,807.0696,1056.4835
782.8938,796.99634,804.65204,902.96704
760.32965,796.99634,803.44324,686.1905
776.4469,790.54944,805.05493,954.5421
763.1502,796.1905,809.4872,734.1392
747.4359,798.20514,807.47253,689.011
776.4469,800.2198,803.0403,887.6557
820.3663,803.8461,806.26373,1054.4689
764.35895,794.57874,800.6227,724.87177
768.7912,792.1612,803.0403,653.5531
777.25275,791.3553,803.8461,829.2308
805.8608,800.6227,803.8461,970.2564
788.93774,797.8022,800.6227,988.7912
794.17584,798.20514,800.6227,940.84247
761.13556,788.93774,796.1905,718.8278
743.4066,788.93774,797.3993,606.8132
770,793.7729,803.8461,780.07324
800.6227,798.20514,804.65204,988.3883
790.54944,795.78754,799.41394,962.6007
770.40295,789.7436,796.5934,738.5714
758.315,786.9231,796.5934,590.293
765.9707,785.7143,796.5934,728.0952
804.2491,790.54944,801.4286,933.5897
779.2674,792.1612,797.3993,758.71796
792.1612,789.7436,806.26373,927.9487
810.696,799.41394,799.81683,974.68866
798.20514,797.3993,800.6227,794.9817
777.6557,790.9524,804.2491,598.3516
767.1795,785.31134,805.05493,694.65204
762.74725,791.3553,799.011,593.1135
801.02563,790.9524,802.23444,936.0073
782.0879,791.75824,802.23444,670.07324
809.89014,793.36993,801.4286,909.011
832.8571,793.7729,802.23444,1001.28204
815.12823,788.5348,801.02563,843.3333
772.4176,786.1172,802.23444,607.619
771.6117,793.7729,800.2198,644.68866
811.0989,794.57874,801.8315,888.0586
825.6044,789.34064,803.0403,994.43225
819.15753,793.36993,802.6374,866.30035
790.9524,791.75824,806.26373,621.31866
762.3443,789.7436,805.8608,602.7839
787.72894,792.1612,809.4872,839.707
809.89014,788.93774,808.68134,970.65936
789.7436,784.5055,807.8755,853.00366
755.4945,780.87915,807.8755,588.68134
739.3773,779.2674,801.8315,529.85345
778.46155,786.1172,804.65204,770.40295
799.41394,793.36993,807.47253,947.6923
770.40295,792.96704,804.2491,860.2564
740.58606,787.72894,806.6667,603.1868
728.9011,784.90845,807.47253,520.18317
797.8022,798.60803,813.5165,942.4542
803.8461,792.5641,820.7692,899.34064
763.1502,791.3553,805.05493,733.73627
769.59705,788.5348,811.0989,644.2857
763.95605,794.57874,800.2198,723.663
792.5641,790.54944,801.02563,948.9011
792.5641,783.2967,796.1905,920.696
778.46155,780.87915,795.78754,686.99634
764.7619,779.2674,799.41394,527.4359
782.8938,784.90845,803.8461,688.20514
826.4103,788.5348,801.8315,925.5311
828.4249,785.7143,799.011,927.5458
794.57874,786.52014,809.89014,721.2454
757.1062,791.3553,814.3223,533.0769
741.79486,792.5641,800.6227,523.4066
761.53845,798.20514,809.0842,654.35895
802.23444,795.78754,809.4872,915.4579
754.2857,784.90845,803.8461,544.7619
755.4945,782.8938,803.0403,626.1539
787.72894,781.685,801.02563,881.6117
812.71063,791.3553,809.4872,964.21246
788.5348,789.34064,804.65204,763.5531
809.0842,786.52014,806.26373,971.4652
781.685,779.2674,802.6374,794.9817
754.68866,774.43225,798.60803,548.3883
761.53845,781.28204,800.6227,602.381
788.1319,784.10254,801.4286,870.32965
815.12823,790.14655,807.0696,991.2088
776.4469,798.20514,801.8315,591.0989
768.3883,790.14655,805.4579,595.12823
806.6667,795.78754,805.8608,851.39197
798.60803,788.1319,806.26373,868.71796
831.6484,805.4579,808.68134,1021.4286
830.4396,804.2491,805.4579,898.1319
786.1172,788.5348,801.02563,619.707
773.22345,789.7436,802.6374,586.6667
799.41394,788.93774,802.6374,835.6777
823.1868,784.90845,803.0403,1015.38464
813.91943,784.10254,799.81683,933.9927
763.1502,782.8938,797.8022,663.22345
745.42126,787.326,801.4286,582.6374
786.52014,789.7436,803.8461,805.05493
811.9048,790.9524,802.23444,1002.0879
794.57874,797.8022,802.23444,945.2747
759.12085,802.6374,801.02563,694.65204
746.2271,801.02563,794.17584,566.9231
765.56775,803.8461,791.75824,757.1062
800.2198,812.3077,795.38464,989.19415
811.9048,819.15753,796.5934,974.2857
786.9231,818.7546,796.1905,747.8388
760.32965,812.71063,792.96704,585.05493
775.64105,808.68134,783.69965,734.94507
823.1868,811.50183,789.7436,1043.9927
793.36993,804.2491,784.90845,803.44324
767.98535,803.44324,780.07324,604.3956
817.1429,813.5165,785.7143,1006.9231
785.7143,811.0989,784.90845,750.2564
824.7985,814.7253,792.96704,875.9707
801.8315,811.50183,793.36993,648.315
796.99634,809.89014,794.57874,737.3626
821.1722,813.91943,791.3553,987.1795
836.8865,811.50183,786.9231,1069.3773
826.0073,814.3223,786.52014,1016.1905
840.5128,814.7253,792.96704,1070.1831
819.9634,813.91943,796.99634,898.93774
785.7143,806.6667,795.78754,630.58606
783.2967,802.23444,793.36993,655.9707
832.0513,811.0989,792.5641,918.2784
835.6777,812.3077,798.20514,1031.9048
797.8022,801.4286,797.8022,871.9414
775.2381,794.9817,791.3553,585.4579
771.6117,799.41394,794.9817,582.6374
803.8461,802.6374,799.41394,853.00366
832.0513,805.8608,797.3993,1000.4762
829.6337,815.9341,799.41394,891.28204
803.8461,817.5458,803.8461,632.6007
788.5348,807.0696,801.02563,589.0842
822.381,807.0696,802.23444,838.49817
861.06226,817.5458,806.26373,1025.8608
845.7509,817.1429,800.6227,941.6484
807.8755,813.5165,794.9817,669.67035
795.38464,807.0696,789.34064,581.02563
825.6044,807.8755,791.3553,808.2784
844.94507,807.47253,795.78754,1006.1172
826.4103,801.4286,792.96704,947.28937
798.60803,804.2491,792.96704,685.38464
789.34064,808.2784,795.78754,552.4176
808.2784,805.4579,799.011,752.674
827.619,805.8608,799.011,983.5531
833.2601,806.26373,801.4286,963.00366
803.0403,801.4286,799.81683,707.1429
770,798.20514,797.3993,535.4945
783.69965,802.23444,801.02563,715.2015
805.05493,808.68134,804.2491,963.00366
813.5165,806.6667,805.8608,968.6447
794.57874,805.05493,805.8608,728.49817
753.47986,794.17584,794.9817,517.3626
765.9707,788.1319,790.9524,645.89746
808.68134,795.38464,797.3993,933.9927
819.5604,794.17584,799.41394,1000.87915
799.41394,795.38464,796.1905,775.2381
805.4579,794.57874,799.81683,908.60803
815.9341,801.8315,797.3993,997.6557
803.0403,799.81683,790.54944,820.3663
770.80585,792.1612,785.7143,591.0989
769.19415,788.93774,784.90845,549.59705
837.6923,803.0403,794.17584,996.04395
813.1135,799.011,788.93774,875.9707
825.2015,803.8461,798.20514,840.10986
774.0293,796.5934,793.7729,535.09155
781.685,794.17584,794.9817,633.00366
778.46155,793.36993,792.1612,563.2967
767.5824,791.75824,793.7729,565.7143
795.78754,794.57874,794.9817,822.7839
807.8755,794.57874,796.1905,978.71796
795.78754,792.96704,797.3993,858.24176
765.16486,792.5641,803.0403,576.1905
747.4359,789.7436,792.96704,530.2564
776.8498,792.5641,785.31134,773.6264
805.05493,797.8022,799.81683,959.7802
793.7729,795.78754,809.0842,883.22345
763.5531,798.60803,804.65204,616.8865
755.4945,801.4286,801.02563,534.68866
782.49084,804.65204,803.44324,765.9707
810.293,797.3993,804.2491,967.4359
797.8022,790.9524,805.4579,909.011
758.71796,797.3993,805.05493,634.61536
790.9524,794.17584,796.1905,961.79486
784.5055,795.78754,796.5934,927.5458
760.32965,795.38464,793.36993,668.86444
750.65936,796.1905,789.7436,514.5421
772.4176,797.3993,790.14655,698.2784
804.2491,799.011,792.5641,958.97437
728.49817,796.5934,795.78754,496.00732
749.45056,793.7729,792.5641,713.9927
805.05493,803.44324,799.81683,971.8681
788.5348,796.1905,802.6374,745.0183
760.7326,793.7729,799.81683,552.01465
778.86444,792.96704,797.3993,684.17584
825.2015,794.9817,790.14655,953.3333
830.0366,808.2784,795.38464,1001.685
798.60803,799.41394,799.81683,781.28204
766.77655,794.17584,799.41394,543.95605
775.2381,796.1905,803.0403,641.8681
815.5311,797.8022,803.0403,922.71063
835.2747,799.81683,801.4286,1009.34064
814.7253,798.20514,799.81683,828.4249
785.7143,798.60803,799.011,569.7436
788.5348,795.38464,799.81683,610.0366
812.3077,805.05493,805.05493,893.69965
790.14655,798.20514,804.2491,850.58606
809.0842,804.2491,803.44324,1003.69965
773.6264,799.011,802.23444,597.9487
778.46155,799.011,796.1905,602.381
799.81683,800.2198,799.011,859.45056
814.3223,798.60803,802.6374,1010.14655
813.1135,799.41394,806.26373,890.07324
783.2967,795.78754,807.47253,606.8132
767.5824,792.5641,803.44324,559.67035
790.14655,793.7729,804.2491,807.47253
780.07324,791.75824,801.8315,625.7509
759.5238,788.1319,799.41394,510.1099
772.8205,787.326,801.4286,759.12085
817.1429,793.7729,808.2784,992.4176
789.7436,789.34064,799.81683,901.3553
763.5531,794.17584,797.3993,638.6447
749.45056,790.9524,797.3993,516.9597
778.46155,790.9524,797.3993,734.5421
811.0989,799.41394,800.2198,974.68866
794.17584,786.9231,802.23444,969.85345
813.1135,791.75824,809.0842,919.0842
801.4286,797.3993,795.78754,939.6337
778.86444,792.1612,792.1612,677.72894
758.71796,793.7729,798.20514,525.82416
770,794.17584,799.011,706.337
808.2784,795.78754,796.99634,961.39197
829.6337,796.99634,800.2198,987.1795
804.2491,795.38464,800.6227,742.6007
773.6264,792.1612,794.9817,529.85345
817.1429,796.1905,797.8022,959.3773
785.7143,793.7729,793.7729,682.1612
825.6044,800.2198,799.011,992.8205
799.41394,805.05493,799.41394,769.19415
766.3736,802.23444,796.99634,538.71796
795.38464,793.7729,795.78754,914.65204
818.7546,796.5934,805.8608,1000.4762
768.7912,795.38464,799.011,552.8205
806.26373,795.38464,799.81683,807.47253
765.16486,793.36993,799.81683,612.4542
803.44324,791.3553,797.8022,896.1172
826.0073,793.7729,800.2198,1019.81683
776.04395,792.5641,798.20514,592.3077
767.5824,796.1905,791.75824,633.4066
803.0403,788.5348,796.1905,858.6447
769.59705,797.3993,797.3993,586.6667
782.8938,793.7729,795.78754,848.97437
807.8755,797.3993,798.60803,1021.8315
794.57874,796.5934,797.8022,890.07324
767.1795,795.38464,799.011,597.1429
757.50916,794.57874,796.99634,558.86444
765.16486,794.57874,799.011,821.978
787.72894,791.3553,803.44324,1000.4762
784.10254,784.5055,801.02563,904.9817
751.8681,782.49084,797.3993,626.1539
743.4066,783.69965,793.36993,536.7033
767.98535,788.5348,799.41394,788.93774
803.44324,789.7436,804.2491,1004.90845
799.41394,787.72894,797.3993,945.2747
759.92676,792.1612,793.7729,772.01465
814.7253,796.1905,798.60803,1017.8022
819.15753,798.20514,801.02563,983.5531
792.1612,799.011,802.6374,725.6777
765.9707,795.38464,802.23444,559.67035
778.86444,792.96704,797.3993,738.97437
815.9341,794.17584,800.2198,1003.69965
830.4396,799.41394,803.44324,1020.2198
805.05493,796.99634,794.9817,765.9707
740.58606,787.72894,794.9817,548.3883
767.98535,786.1172,795.78754,677.326
772.01465,790.14655,789.7436,550
831.6484,806.26373,800.6227,1000.07324
834.0659,807.0696,799.81683,1035.5311
824.7985,804.2491,795.78754,803.8461
795.78754,806.6667,790.54944,566.1172
780.87915,806.26373,792.5641,663.6264
792.5641,803.44324,794.57874,925.12823
799.41394,795.78754,798.20514,718.4249
809.0842,800.6227,793.36993,990.40295
800.2198,798.60803,792.96704,781.685
750.2564,794.9817,791.75824,502.85715
739.7802,795.38464,792.96704,573.7729
780.87915,804.2491,801.02563,874.35895
803.44324,807.0696,807.47253,990.40295
752.27106,805.4579,807.0696,531.8681
790.14655,810.696,801.8315,851.39197
748.24176,803.44324,801.4286,551.6117
785.7143,807.47253,810.696,819.9634
826.8132,811.9048,803.8461,1012.96704
783.69965,799.81683,800.6227,850.58606
739.7802,793.7729,795.78754,533.8828
755.4945,803.44324,803.44324,515.34796
807.0696,803.8461,809.0842,809.89014
831.6484,797.8022,803.44324,1002.49084
817.5458,797.3993,804.2491,905.78754
788.1319,796.5934,799.81683,616.08057
774.43225,798.60803,793.7729,540.32965
809.0842,804.65204,794.17584,801.02563
848.5714,811.0989,798.60803,1040.7693
846.9597,809.0842,801.4286,994.0293
811.0989,800.6227,790.54944,686.99634
782.49084,799.011,783.2967,538.315
794.57874,809.4872,794.17584,765.56775
819.15753,812.3077,798.20514,1014.9817
807.47253,803.8461,791.75824,978.71796
778.46155,805.05493,792.96704,699.0842
763.95605,808.2784,792.1612,533.8828
772.4176,806.6667,794.57874,734.94507
792.96704,807.47253,801.8315,1004.5055
799.81683,807.8755,800.6227,1009.34064
782.8938,805.8608,799.81683,759.12085
757.50916,805.05493,803.8461,554.83514
799.41394,802.23444,805.4579,1004.90845
817.1429,810.293,807.47253,1047.619
790.9524,805.8608,804.65204,814.3223
765.16486,796.1905,796.99634,568.5348
790.54944,801.4286,794.17584,698.2784
753.47986,801.8315,803.0403,717.2161
827.2161,809.89014,800.6227,1006.9231
839.304,808.68134,806.6667,888.0586
840.10986,805.8608,801.02563,1080.6593
799.41394,802.23444,802.6374,606.4103
788.93774,796.99634,795.78754,653.1502
817.1429,803.8461,801.8315,954.1392
823.9927,800.6227,798.60803,1067.7656
804.2491,797.8022,796.99634,890.87915
779.67035,803.0403,803.8461,608.4249
771.2088,799.81683,802.23444,610.4396
805.8608,798.20514,798.20514,906.99634
828.022,799.81683,800.6227,1072.6007
812.3077,804.65204,804.2491,919.0842
780.87915,802.6374,801.4286,597.9487
763.95605,797.8022,801.8315,570.14655
794.17584,797.8022,802.6374,862.27106
822.381,797.3993,802.23444,1054.4689
816.7399,800.2198,801.8315,944.0659
776.8498,794.57874,793.36993,628.1685
772.8205,790.9524,793.36993,803.8461
813.91943,792.96704,792.96704,1026.6666
811.0989,801.4286,792.96704,948.9011
784.90845,806.6667,794.9817,656.77655
743.00366,789.7436,788.93774,539.12085
771.2088,798.20514,796.5934,531.8681
798.20514,794.17584,788.1319,967.03296
771.2088,792.1612,784.90845,538.71796
792.5641,791.3553,788.5348,739.7802
813.91943,796.5934,794.57874,994.83514
816.337,799.81683,797.3993,1000.4762
799.41394,800.6227,796.99634,751.8681
771.6117,803.0403,793.36993,537.9121
781.685,794.17584,791.3553,690.6227
808.2784,796.5934,789.34064,1022.6374
786.52014,792.5641,793.7729,776.4469
778.0586,790.54944,788.1319,690.2198
807.47253,790.14655,795.78754,984.35895
784.5055,794.57874,801.02563,777.25275
743.8095,794.57874,799.41394,536.30035
761.53845,792.1612,795.38464,670.87915
812.71063,790.9524,798.20514,1016.1905
801.4286,799.011,799.81683,962.1978
811.50183,799.81683,802.23444,1022.6374
799.81683,795.78754,796.5934,815.12823
761.13556,792.96704,790.54944,547.5824
762.3443,796.99634,793.36993,619.707
805.4579,797.8022,798.20514,923.5165
821.5751,793.36993,799.41394,1037.9487
807.47253,792.1612,798.60803,863.8828
778.46155,793.36993,795.38464,580.2198
776.4469,794.17584,792.96704,606.0073
807.8755,792.5641,790.54944,896.52014
834.87177,790.14655,795.78754,1045.6044
821.978,794.17584,797.3993,915.8608
797.8022,795.78754,795.38464,610.4396
791.3553,792.5641,797.3993,846.1539
821.1722,799.011,798.60803,1030.2931
816.337,801.4286,802.23444,913.0403
784.90845,794.9817,796.1905,595.5311
785.7143,788.93774,796.5934,569.7436
753.0769,792.1612,792.1612,528.24176
770.40295,793.7729,792.5641,789.7436
811.50183,794.9817,793.7729,998.46155
807.8755,790.54944,796.99634,931.978
773.22345,788.93774,798.60803,646.7033
761.9414,798.60803,801.8315,530.2564
794.17584,799.011,800.2198,763.95605
831.6484,799.011,796.1905,1002.49084
830.4396,799.41394,795.38464,958.5714
794.17584,796.1905,791.75824,671.685
779.67035,796.1905,788.93774,513.3333
793.36993,792.5641,789.34064,718.8278
812.3077,792.1612,790.14655,973.0769
818.3516,796.5934,793.7729,959.3773
790.9524,797.3993,794.9817,709.15753
765.9707,801.4286,794.57874,506.48352
770.40295,798.60803,796.5934,662.01465
799.011,801.4286,799.011,948.49817
821.5751,805.05493,803.0403,992.01465
796.5934,793.36993,799.81683,748.6447
749.85345,787.326,790.9524,502.45422
758.71796,799.81683,792.5641,627.3626
801.02563,804.65204,797.3993,919.4872
809.89014,801.02563,795.38464,992.8205
785.7143,798.20514,792.1612,792.96704
752.674,791.75824,796.99634,599.9634
753.0769,794.57874,794.17584,528.24176
797.8022,798.60803,795.78754,900.54944
822.381,803.0403,804.65204,1015.78754
817.9487,806.6667,806.26373,853.4066
790.54944,802.6374,791.3553,573.7729
769.19415,791.75824,785.7143,587.8755
799.41394,794.9817,795.78754,877.1795
822.381,799.011,798.60803,1023.44324
822.381,799.41394,797.8022,886.04395
794.17584,803.44324,796.5934,599.5604
767.5824,800.6227,793.7729,567.72894
793.7729,796.1905,792.5641,840.5128
828.022,796.1905,794.57874,1016.1905
811.50183,796.1905,794.9817,902.96704
771.2088,794.9817,793.36993,606.8132
744.61536,793.7729,791.3553,524.61536
754.68866,788.5348,787.72894,761.9414
786.52014,785.31134,791.3553,962.1978
782.8938,786.52014,796.99634,890.07324
757.9121,790.14655,797.3993,620.10986
736.9597,788.1319,797.8022,508.09525
761.53845,792.96704,804.65204,728.49817
787.72894,799.41394,806.26373,949.304
747.03296,800.6227,801.4286,632.1978
749.85345,803.8461,797.8022,497.61905
767.5824,803.0403,797.8022,699.4872
790.9524,807.8755,801.02563,951.7216
809.4872,806.26373,801.02563,952.9304
772.8205,798.60803,805.8608,898.5348
790.54944,798.20514,796.1905,703.91943
769.59705,788.5348,797.3993,675.7143
799.41394,796.5934,797.8022,943.2601
763.5531,792.1612,796.1905,520.58606
812.71063,803.44324,798.20514,976.30035
795.78754,798.60803,792.96704,750.65936
761.13556,791.3553,790.14655,527.03296
777.6557,792.5641,793.7729,637.4359
809.89014,794.9817,795.78754,908.20514
811.0989,790.9524,792.5641,971.4652
800.6227,791.3553,791.3553,785.7143
766.3736,790.14655,792.1612,539.5238
749.85345,786.1172,791.75824,593.5165
778.46155,788.5348,794.57874,866.7033
808.68134,791.3553,796.1905,968.6447
784.90845,792.5641,796.1905,800.6227
741.79486,792.5641,796.1905,541.13556
748.6447,795.78754,795.78754,571.75824
786.1172,798.60803,801.02563,840.5128
816.337,801.02563,805.8608,970.2564
802.23444,798.20514,802.6374,840.10986
767.1795,796.1905,799.41394,577.3993
767.98535,803.44324,802.6374,565.31134
799.41394,803.0403,802.6374,811.9048
827.2161,801.8315,804.2491,969.45056
815.5311,799.81683,801.8315,869.92676
783.2967,803.8461,797.8022,606.4103
775.2381,804.2491,800.6227,551.2088
795.38464,795.78754,799.81683,782.49084
816.7399,795.38464,801.02563,970.65936
810.293,794.9817,799.011,903.7729
781.685,793.36993,794.9817,649.5238
770,792.1612,795.78754,540.7326
798.60803,794.9817,798.60803,732.9304
811.9048,796.5934,796.99634,908.20514
816.337,796.99634,800.6227,947.28937
735.34796,783.69965,790.54944,494.3956
780.87915,789.34064,789.34064,642.674
749.85345,788.1319,790.14655,674.5055
781.28204,784.10254,788.93774,901.75824
776.04395,782.8938,791.75824,897.72894
759.12085,788.5348,792.96704,677.72894
734.5421,793.7729,792.96704,504.8718
737.76556,793.7729,792.5641,643.0769
787.72894,796.99634,796.5934,899.7436
806.26373,799.41394,800.6227,941.6484
772.4176,797.3993,800.2198,734.1392
734.5421,796.1905,794.57874,520.989
749.0476,792.5641,787.326,626.55676
805.05493,796.5934,796.99634,902.1612
827.2161,804.2491,809.4872,982.3443
799.81683,802.23444,804.65204,796.1905
750.65936,791.3553,798.20514,554.0293
754.68866,793.7729,792.5641,625.34796
806.6667,794.17584,793.36993,891.685
828.022,794.9817,805.8608,983.1502
799.81683,797.3993,805.05493,817.5458
751.8681,788.5348,797.3993,565.31134
797.3993,797.8022,806.26373,850.18317
791.3553,786.1172,800.6227,832.0513
751.8681,781.28204,796.99634,585.4579
746.2271,786.9231,795.38464,580.2198
810.696,790.54944,803.0403,958.5714
776.4469,786.52014,798.20514,825.2015
759.92676,794.9817,802.6374,605.2015
801.8315,786.1172,801.8315,982.74725
801.8315,792.96704,806.26373,896.1172
768.3883,793.36993,807.0696,648.71796
751.4652,790.14655,805.4579,593.91943
785.31134,795.78754,805.05493,822.381
819.15753,803.0403,805.8608,1013.7729
814.7253,794.17584,799.81683,944.0659
779.67035,788.93774,792.5641,686.99634
771.6117,794.57874,797.3993,604.7985
790.14655,791.3553,796.1905,805.05493
814.3223,791.75824,793.36993,1010.54944
828.4249,791.75824,791.3553,977.1062
772.4176,790.14655,796.1905,601.1722
794.17584,788.5348,792.96704,777.6557
832.0513,798.60803,795.78754,1002.49084
846.9597,808.2784,804.65204,971.4652
799.011,791.75824,794.57874,740.58606
828.4249,806.6667,803.44324,763.5531
796.1905,792.1612,797.8022,741.39197
836.08057,795.78754,801.02563,974.2857
832.8571,798.60803,799.81683,992.4176
815.12823,802.23444,802.6374,790.54944
781.685,796.1905,794.17584,605.6044
778.46155,795.78754,796.1905,587.8755
774.0293,789.7436,796.1905,685.78754
816.337,796.5934,804.65204,926.337
824.3956,799.011,800.2198,961.39197
796.5934,795.78754,799.41394,783.2967
774.83514,795.78754,805.8608,580.2198
776.4469,797.8022,797.8022,647.9121
795.78754,794.9817,790.54944,881.2088
812.71063,788.5348,796.99634,963.00366
805.05493,790.9524,798.20514,831.6484
778.0586,790.9524,794.9817,613.663
768.7912,789.34064,790.14655,639.0476
800.2198,794.9817,797.3993,880.40295
827.2161,796.5934,800.2198,994.0293
782.0879,787.72894,796.99634,655.56775
776.04395,797.8022,794.57874,657.5824
800.6227,802.23444,802.23444,895.7143
830.4396,803.8461,803.8461,1040.3663
822.381,802.23444,796.5934,942.8571
811.9048,790.14655,798.60803,881.2088
790.54944,794.9817,796.99634,699.4872
811.9048,799.011,792.5641,859.45056
820.7692,802.23444,799.81683,958.5714
829.2308,801.02563,796.1905,1017.3993
792.1612,795.78754,794.57874,651.9414
788.1319,795.38464,796.99634,724.87177
768.7912,791.75824,792.96704,630.18317
791.75824,799.41394,797.8022,832.4542
828.4249,798.60803,801.02563,1012.96704
825.2015,798.20514,800.6227,954.5421
799.011,802.23444,797.8022,735.34796
783.2967,796.5934,797.3993,620.5128
794.9817,793.36993,798.60803,786.1172
831.6484,803.8461,799.011,996.8498
828.022,803.8461,796.99634,985.16486
788.93774,796.1905,796.1905,776.04395
779.2674,796.99634,795.38464,634.21246
805.4579,795.78754,796.5934,784.5055
833.2601,800.2198,794.9817,997.6557
838.0952,801.8315,796.1905,1010.9524
819.15753,797.3993,797.3993,818.7546
785.31134,796.5934,793.36993,657.5824
802.6374,802.23444,797.3993,794.57874
841.7216,807.0696,800.6227,1006.52014
842.9304,798.60803,793.7729,1031.0989
828.4249,791.3553,794.17584,874.35895
798.20514,790.14655,795.38464,677.326
801.4286,791.75824,790.9524,737.3626
840.5128,795.38464,793.36993,965.42126
853.8095,794.57874,792.5641,1037.9487
799.81683,794.57874,795.78754,692.23444
798.60803,787.326,788.93774,716.8132
819.9634,788.1319,793.7729,931.1722
840.9158,805.4579,801.8315,1037.1428
825.2015,803.0403,794.17584,906.1905
767.98535,783.2967,786.52014,659.19415
752.27106,780.87915,792.1612,645.89746
786.1172,792.96704,804.2491,867.50916
809.89014,794.9817,805.4579,998.0586
791.3553,796.5934,806.6667,896.1172
830.84247,793.7729,793.7729,896.9231
746.2271,793.36993,807.0696,671.685
764.7619,805.8608,810.293,858.6447
780.07324,805.4579,802.23444,995.2381
778.86444,805.05493,792.96704,917.8755
757.9121,807.8755,794.9817,709.5604
763.5531,801.4286,804.2491,647.1062
774.83514,797.3993,798.20514,821.1722
743.8095,794.9817,808.2784,651.13556
779.2674,801.4286,791.3553,981.9414
792.1612,802.23444,800.6227,949.304
778.0586,803.0403,799.41394,746.63007
751.4652,797.8022,789.7436,630.58606
781.28204,801.02563,790.9524,790.14655
814.7253,801.02563,794.17584,978.315
808.68134,799.011,797.8022,969.0476
782.49084,803.0403,797.8022,768.3883
753.47986,805.05493,793.36993,618.0952
758.315,808.68134,793.36993,743.00366
789.7436,801.8315,796.1905,946.08057
803.44324,796.99634,796.99634,961.79486
778.46155,801.4286,795.38464,772.4176
738.5714,797.8022,790.54944,585.4579
743.8095,794.9817,788.5348,686.99634
787.72894,801.8315,797.8022,915.05493
811.0989,805.05493,809.89014,965.0183
731.7216,793.7729,795.38464,570.54944
721.2454,792.1612,793.7729,639.45056
795.38464,806.26373,794.57874,941.6484
785.7143,806.6667,790.54944,805.4579
768.3883,797.8022,797.3993,871.53845
773.22345,796.1905,791.75824,630.989
797.8022,795.38464,789.34064,834.87177
765.56775,801.4286,791.3553,606.0073
786.9231,800.2198,806.6667,787.72894
815.9341,801.02563,784.5055,929.9634
810.696,802.23444,781.28204,821.1722
793.7729,797.8022,785.31134,622.9304
784.5055,794.9817,783.2967,617.6923
805.4579,799.81683,782.8938,819.15753
836.08057,801.02563,788.93774,947.28937
831.2454,802.6374,792.5641,861.4652
791.3553,802.23444,793.36993,610.84247
808.68134,802.23444,795.78754,792.96704
830.4396,806.6667,796.1905,937.619
823.5897,807.47253,788.5348,868.315
788.5348,803.8461,790.54944,653.5531
768.3883,801.02563,790.54944,569.7436
804.65204,803.0403,793.7729,655.56775
790.14655,802.6374,790.54944,733.3333
807.0696,799.011,792.5641,886.04395
771.6117,797.3993,787.326,630.989
776.8498,799.011,789.7436,689.41394
747.8388,791.75824,786.9231,519.3773
801.8315,804.2491,794.17584,832.8571
775.64105,798.60803,794.9817,639.0476
761.9414,792.96704,794.17584,519.3773
817.9487,808.68134,796.1905,877.1795
799.41394,795.78754,788.1319,839.707
768.3883,790.9524,788.1319,642.27106
803.44324,796.99634,796.1905,844.5421
819.9634,805.05493,807.0696,870.32965
805.8608,803.0403,805.8608,703.1135
780.07324,800.2198,797.3993,543.1502
780.87915,802.6374,791.75824,646.7033
807.8755,802.6374,791.3553,856.2271
821.1722,799.41394,795.38464,906.1905
751.4652,789.7436,792.96704,563.69965
753.47986,791.75824,788.5348,620.9158
800.2198,793.7729,799.81683,759.92676
801.4286,797.3993,796.1905,847.76556
812.3077,802.6374,802.6374,923.1135
801.4286,805.4579,799.011,788.93774
767.5824,799.81683,794.9817,597.1429
763.1502,794.9817,794.17584,635.82416
788.1319,794.17584,793.7729,848.5714
805.05493,796.99634,795.78754,941.6484
790.54944,793.36993,796.5934,832.4542
759.92676,788.93774,794.17584,644.68866
767.5824,788.1319,790.9524,651.9414
789.7436,788.5348,792.96704,846.55676
812.3077,792.1612,799.011,972.27106
810.696,792.5641,797.3993,886.4469
778.0586,793.36993,796.1905,678.1319
775.64105,792.96704,799.41394,655.16486
811.50183,790.9524,795.38464,846.9597
800.6227,803.0403,786.52014,903.7729
781.28204,800.2198,788.5348,708.7546
777.6557,791.3553,793.7729,647.1062
821.1722,796.1905,786.9231,969.0476
808.2784,792.96704,797.3993,839.707
817.9487,797.8022,792.5641,979.5238
781.28204,788.5348,785.31134,910.2198
762.3443,784.90845,789.34064,724.0659
771.6117,791.3553,801.4286,656.77655
789.7436,794.57874,803.0403,805.8608
792.5641,790.14655,794.57874,958.97437
781.28204,786.9231,793.36993,946.08057
772.8205,787.72894,795.38464,771.2088
758.71796,787.326,792.96704,655.56775
778.0586,792.5641,793.7729,789.7436
824.3956,799.81683,795.78754,979.12085
826.4103,801.4286,792.1612,983.95605
786.52014,793.7729,788.1319,801.8315
762.3443,787.72894,778.86444,650.7326
795.78754,797.8022,783.69965,776.8498
832.0513,809.0842,790.9524,992.4176
827.619,807.8755,785.31134,1037.1428
811.9048,805.05493,785.31134,890.87915
803.44324,807.8755,793.36993,732.1245
823.9927,815.9341,793.36993,849.7802
853.00366,814.3223,793.7729,1073.8096
860.2564,814.3223,790.9524,1124.1758
832.4542,813.1135,784.5055,1002.0879
806.6667,809.89014,783.69965,836.4835
815.5311,811.50183,787.326,913.44324
847.76556,808.2784,789.34064,1143.5165
859.0476,811.50183,792.96704,1245.4579
846.55676,817.1429,793.36993,1150.3663
817.1429,811.0989,791.3553,954.5421
812.71063,815.5311,798.60803,977.1062
855.0183,820.7692,796.99634,1196.7032
876.3736,817.1429,790.14655,1311.5385
860.2564,823.9927,798.60803,1225.7142
825.6044,820.7692,796.5934,1010.9524
814.3223,807.47253,791.75824,982.3443
832.0513,806.26373,792.5641,1189.0476
855.82416,812.71063,790.9524,1330.4762
842.1245,806.6667,794.17584,1243.8462
808.2784,805.05493,793.36993,1024.652
801.8315,806.6667,791.3553,966.2271
823.5897,803.44324,790.9524,1143.9194
846.1539,808.2784,790.14655,1289.3773
846.1539,811.50183,793.7729,1227.326
813.5165,807.0696,793.36993,1013.7729
784.90845,799.41394,789.7436,906.5934
807.0696,795.78754,788.1319,1052.4542
833.663,802.6374,794.57874,1219.6703
834.4689,809.0842,794.9817,1181.7949
800.2198,808.68134,784.10254,954.94507
772.4176,804.65204,779.67035,809.4872
796.1905,801.4286,782.8938,940.84247
824.7985,802.23444,792.5641,1121.3553
790.14655,801.4286,786.1172,898.5348
821.1722,804.2491,790.54944,1103.2234
757.50916,799.011,790.54944,738.97437
770.80585,803.0403,796.5934,850.18317
804.65204,809.0842,796.5934,1041.978
811.0989,809.89014,791.3553,1056.8865
784.90845,803.0403,786.52014,877.98535
754.68866,795.78754,781.28204,693.8461
762.74725,791.75824,782.0879,762.74725
793.36993,795.78754,782.49084,950.9158
790.9524,803.44324,788.5348,998.86444
770.40295,796.99634,792.5641,846.9597
744.21246,792.1612,786.1172,641.06226
755.4945,794.57874,782.49084,680.9524
782.0879,798.60803,784.90845,881.6117
788.93774,796.5934,788.5348,947.6923
784.90845,798.20514,786.9231,823.5897
761.13556,796.99634,784.5055,624.1392
758.315,792.96704,781.28204,628.5714
778.0586,800.2198,780.87915,827.2161
796.1905,804.2491,784.5055,921.0989
787.326,805.05493,786.52014,810.293
751.4652,798.20514,782.0879,581.4286
744.61536,786.52014,780.4762,552.8205
780.87915,792.1612,783.2967,749.85345
805.4579,800.6227,789.34064,874.35895
796.99634,798.60803,793.7729,798.20514
745.0183,796.1905,791.75824,503.26007
767.98535,791.75824,789.34064,675.7143
808.2784,798.20514,790.9524,828.4249
813.5165,807.8755,792.1612,779.67035
768.3883,802.6374,792.5641,562.0879
733.3333,792.1612,792.1612,462.56412
759.92676,789.7436,792.5641,625.34796
786.9231,791.75824,790.9524,788.93774
786.9231,796.5934,791.3553,758.315
762.3443,796.99634,793.36993,574.9817
770.80585,793.7729,795.78754,571.3553
746.2271,793.36993,796.99634,460.1465
761.53845,795.38464,793.7729,600.7692
805.05493,801.8315,796.99634,789.7436
822.7839,805.4579,806.6667,792.5641
745.42126,798.20514,803.0403,457.72894
787.326,796.1905,808.2784,603.5897
761.53845,801.4286,795.38464,564.5055
801.4286,797.8022,796.99634,762.74725
806.26373,795.78754,796.1905,792.5641
776.8498,794.17584,787.72894,618.0952
750.2564,790.14655,788.93774,448.0586
753.47986,786.52014,791.75824,542.74725
780.07324,792.5641,792.96704,746.2271
780.87915,794.9817,788.5348,657.5824
757.1062,795.38464,788.93774,474.652
758.315,791.3553,788.1319,530.2564
792.5641,795.78754,790.54944,750.2564
819.5604,794.57874,793.36993,831.2454
800.2198,785.31134,790.54944,711.978
758.71796,784.10254,785.31134,516.55676
754.68866,788.93774,786.52014,536.30035
788.93774,788.5348,792.96704,751.4652
826.0073,789.7436,796.5934,855.82416
790.9524,796.1905,792.96704,794.57874
792.96704,789.7436,797.8022,753.8828
760.7326,791.75824,795.78754,567.326
762.3443,792.96704,791.75824,551.2088
786.1172,795.38464,793.7729,753.47986
811.50183,792.96704,794.57874,878.3883
806.26373,796.5934,796.1905,792.5641
786.52014,792.96704,794.17584,594.7253
770.40295,787.326,790.14655,549.59705
773.6264,794.57874,792.96704,741.79486
795.78754,795.78754,792.5641,883.22345
807.47253,791.75824,792.1612,832.0513
788.93774,792.1612,794.57874,644.2857
767.98535,795.78754,792.5641,567.326
821.1722,795.78754,798.60803,912.23444
783.69965,794.57874,792.5641,738.5714
824.3956,797.8022,799.41394,881.2088
786.52014,793.7729,794.9817,691.8315
765.16486,795.38464,796.99634,589.89014
790.14655,793.7729,792.96704,730.9158
815.12823,787.72894,789.7436,906.5934
816.337,792.96704,792.96704,898.5348
796.1905,795.38464,793.36993,730.9158
767.98535,787.326,790.14655,600.7692
769.19415,791.75824,788.5348,713.9927
789.7436,795.38464,792.96704,902.5641
782.8938,799.81683,792.96704,776.4469
748.24176,793.36993,788.1319,614.0659
755.89746,790.54944,793.7729,692.6374
780.07324,797.3993,797.8022,881.6117
789.7436,795.38464,797.3993,925.12823
775.2381,785.7143,801.8315,798.60803
752.674,790.14655,800.2198,637.4359
739.7802,788.1319,794.17584,701.9048
807.8755,796.5934,795.38464,925.12823
772.4176,793.36993,803.44324,893.2967
803.44324,797.3993,800.2198,949.707
790.54944,786.9231,789.34064,849.3773
765.56775,788.1319,790.14655,683.7729
761.53845,790.54944,792.1612,713.1868
815.12823,794.57874,799.011,1000.87915
791.75824,793.7729,796.99634,909.41394
811.50183,799.011,796.99634,917.0696
790.9524,792.96704,793.36993,888.86444
808.68134,788.5348,791.75824,994.83514
798.20514,788.1319,790.9524,923.1135
772.8205,788.93774,790.14655,735.7509
766.3736,792.5641,792.96704,714.3956
780.4762,796.1905,792.5641,733.3333
772.8205,790.14655,789.7436,691.02563
786.9231,790.54944,793.7729,862.27106
765.9707,792.1612,792.96704,754.2857
759.12085,796.5934,792.5641,688.60803
787.326,799.41394,788.93774,825.2015
815.9341,796.1905,788.1319,973.0769
810.293,799.011,790.9524,943.663
778.86444,799.011,791.75824,763.5531
755.09155,794.9817,795.78754,660.80585
755.09155,794.17584,791.75824,780.87915
795.78754,793.36993,794.57874,941.2454
805.4579,792.1612,798.20514,1000.07324
779.2674,794.57874,789.7436,936.0073
789.7436,795.38464,793.36993,932.381
777.6557,792.1612,797.8022,782.0879
753.0769,786.1172,795.78754,645.4945
759.5238,784.90845,792.5641,743.8095
804.2491,794.9817,799.41394,931.1722
820.7692,797.3993,796.5934,952.52747
809.89014,794.57874,791.3553,809.89014
791.75824,790.9524,801.8315,735.7509
828.022,799.011,801.8315,915.4579
839.304,796.1905,797.8022,954.1392
789.7436,790.54944,795.78754,661.2088
814.3223,789.7436,794.17584,829.6337
778.0586,786.1172,792.5641,705.9341
806.6667,793.36993,791.75824,892.0879
828.8278,802.6374,795.38464,958.5714
819.15753,801.8315,799.41394,856.2271
799.41394,795.38464,794.57874,675.7143
789.7436,786.1172,789.7436,683.7729
811.50183,790.14655,795.78754,868.315
823.9927,797.3993,801.4286,960.58606
810.293,794.57874,800.6227,866.30035
783.69965,792.96704,798.20514,672.8938
784.5055,785.31134,792.5641,657.98535
781.685,793.7729,798.20514,660.80585
800.6227,792.96704,796.5934,831.2454
822.381,798.20514,799.81683,950.5128
820.3663,801.4286,800.6227,886.8498
786.52014,799.011,793.36993,649.12085
809.89014,802.23444,793.7729,818.7546
839.304,801.02563,796.99634,951.7216
828.8278,801.4286,799.011,900.9524
794.57874,797.8022,796.1905,692.23444
792.5641,798.20514,797.3993,709.5604
785.31134,792.5641,789.34064,620.5128
809.0842,798.20514,792.5641,778.46155
828.8278,802.6374,796.5934,931.978
828.8278,800.6227,796.5934,900.14655
755.09155,790.14655,781.28204,590.696
812.3077,803.0403,792.96704,918.2784
782.49084,786.9231,795.38464,725.2747
759.5238,782.8938,789.34064,595.5311
773.6264,781.685,787.326,698.2784
799.81683,784.5055,792.96704,881.6117
821.1722,799.81683,799.81683,907.8022
809.4872,789.34064,795.78754,911.4286
769.19415,790.9524,783.2967,727.28937
790.54944,797.3993,790.14655,712.7839
792.1612,796.1905,798.20514,762.3443
759.92676,794.17584,798.20514,599.5604
803.0403,792.1612,798.60803,909.81683
778.86444,791.3553,797.3993,789.34064
757.9121,790.9524,800.2198,624.5421
765.16486,787.72894,797.8022,670.4762
788.1319,786.9231,790.9524,857.8388
811.0989,787.72894,793.7729,933.5897
793.7729,784.90845,802.23444,840.5128
785.7143,789.7436,796.99634,861.4652
750.2564,787.72894,794.17584,672.49084
760.32965,786.1172,794.9817,647.9121
751.06226,788.5348,791.3553,638.6447
790.14655,796.99634,803.44324,854.21246
766.77655,801.8315,796.5934,667.6557
759.92676,795.78754,795.38464,655.56775
773.22345,786.1172,798.60803,833.2601
803.8461,789.34064,795.78754,950.5128
806.6667,797.8022,794.17584,895.7143
770.40295,793.7729,793.7729,699.4872
754.68866,789.7436,784.10254,635.42126
785.7143,795.78754,790.54944,810.696
775.2381,786.52014,793.7729,843.73627
802.6374,788.5348,800.6227,951.7216
816.7399,798.60803,800.6227,960.989
772.01465,795.78754,788.93774,652.3443
784.90845,792.1612,790.14655,806.26373
826.4103,798.60803,794.57874,961.79486
780.87915,797.3993,797.8022,744.21246
830.84247,804.65204,799.011,939.6337
759.92676,795.38464,793.7729,631.79486
815.5311,799.41394,800.6227,915.8608
790.9524,798.20514,794.9817,722.8571
783.69965,796.1905,792.96704,768.3883
803.8461,792.96704,799.41394,934.7985
808.2784,786.9231,799.011,927.1429
791.3553,784.90845,793.7729,765.16486
770.80585,787.72894,791.3553,633.8095
793.36993,796.5934,794.57874,753.47986
818.7546,794.57874,794.57874,940.4396
815.9341,791.75824,791.75824,948.49817
794.17584,794.9817,794.9817,797.3993
768.3883,792.96704,797.3993,656.77655
768.7912,784.90845,793.36993,724.0659
801.8315,780.87915,788.1319,907.3993
821.978,791.75824,788.93774,963.8095
805.4579,795.38464,791.75824,826.8132
763.95605,790.14655,790.14655,642.27106
770.80585,790.9524,787.72894,694.65204
817.1429,792.96704,793.36993,852.1978
780.87915,788.1319,790.9524,662.8205
786.9231,791.75824,788.5348,683.36993
832.4542,799.011,795.38464,884.0293
848.5714,794.57874,797.8022,979.12085
823.1868,794.17584,793.7729,877.1795
807.47253,791.3553,786.9231,894.5055
782.49084,793.7729,796.99634,674.90845
801.4286,799.81683,794.9817,841.7216
770.80585,792.96704,796.5934,658.3883
831.6484,794.57874,790.54944,968.24176
815.5311,797.3993,796.1905,952.9304
810.293,795.38464,791.75824,870.32965
790.9524,798.60803,787.72894,673.69965
765.56775,799.011,791.75824,638.6447
789.34064,796.99634,797.3993,807.47253
820.3663,793.7729,792.1612,890.07324
825.2015,796.1905,795.78754,947.6923
782.8938,785.31134,788.5348,693.44324
757.9121,784.5055,788.5348,624.94507
787.326,791.75824,793.7729,791.75824
827.2161,801.02563,797.3993,956.9597
824.3956,799.41394,794.9817,920.293
789.7436,791.75824,789.7436,725.6777
771.6117,795.78754,786.52014,630.989
804.2491,799.81683,787.326,772.4176
845.34796,803.44324,794.9817,944.4689
850.18317,807.47253,799.41394,943.663
821.1722,809.0842,794.17584,778.0586
784.90845,799.41394,790.14655,639.0476
797.8022,793.7729,794.9817,749.45056
823.1868,799.41394,799.011,941.6484
825.6044,801.4286,799.81683,946.8865
800.2198,798.60803,796.5934,783.2967
772.4176,800.2198,796.1905,633.8095
774.83514,804.65204,794.9817,703.1135
805.4579,801.8315,795.38464,938.022
781.685,800.2198,788.93774,787.326
747.03296,798.60803,793.36993,616.4835
795.38464,803.8461,798.20514,893.2967
762.3443,801.8315,794.9817,676.1172
800.2198,802.23444,800.2198,876.77655
804.2491,801.8315,807.47253,940.0366
780.87915,800.2198,805.8608,820.3663
759.12085,796.99634,804.65204,633.8095
759.92676,797.3993,801.02563,651.53845
786.52014,801.02563,805.8608,846.55676
815.9341,806.6667,809.0842,946.8865
806.26373,802.23444,803.44324,848.5714
760.7326,800.2198,797.8022,643.47986
795.38464,798.20514,798.20514,831.6484
828.4249,801.4286,803.8461,958.5714
767.1795,799.41394,801.4286,649.92676
817.9487,794.57874,797.3993,877.1795
783.2967,790.9524,792.1612,674.5055
780.87915,798.20514,796.1905,629.3773
802.23444,800.2198,799.011,805.4579
813.1135,793.7729,795.78754,884.83514
817.5458,799.41394,801.02563,946.8865
783.2967,788.1319,794.57874,685.38464
763.5531,790.54944,796.5934,616.08057
794.57874,792.96704,795.78754,782.49084
819.9634,794.9817,799.81683,940.84247
817.5458,796.1905,804.2491,904.9817
795.38464,796.1905,800.6227,713.5897
763.5531,796.1905,793.36993,619.304
769.19415,791.75824,794.17584,753.0769
788.93774,792.5641,796.5934,743.00366
824.3956,796.1905,801.4286,907.3993
765.16486,786.1172,792.1612,607.619
808.2784,792.96704,800.2198,912.6374
780.4762,788.1319,792.1612,725.6777
828.022,795.78754,800.6227,935.2015
811.50183,798.20514,795.78754,790.9524
778.86444,792.1612,789.34064,639.45056
788.1319,796.1905,787.72894,726.4835
827.2161,799.011,791.3553,927.5458
838.0952,797.8022,794.57874,960.989
817.9487,796.5934,792.1612,821.978
800.2198,796.1905,793.36993,668.86444
798.60803,795.78754,790.9524,720.0366
820.7692,796.99634,786.9231,896.1172
804.65204,788.5348,796.99634,915.8608
778.46155,794.9817,786.9231,662.01465
774.0293,790.14655,784.5055,684.17584
802.6374,792.96704,790.54944,864.68866
829.6337,801.02563,797.8022,847.3626
815.12823,799.81683,795.38464,949.304
803.0403,798.60803,799.011,847.3626
757.9121,790.14655,794.17584,651.53845
740.58606,784.5055,790.54944,641.4652
847.3626,799.81683,793.36993,957.3626
769.59705,788.1319,792.1612,802.6374
797.3993,796.5934,795.38464,910.2198
782.0879,797.3993,801.02563,842.1245
748.24176,794.17584,798.20514,652.3443
738.5714,793.36993,792.96704,617.28937
763.5531,794.57874,798.60803,791.3553
792.96704,796.5934,798.20514,921.9048
799.011,797.3993,793.36993,860.65936
782.49084,799.41394,794.17584,685.38464
770,798.20514,792.96704,629.3773
784.90845,795.38464,790.14655,776.8498
809.4872,797.8022,793.36993,920.293
799.011,798.60803,793.7729,892.0879
767.5824,792.1612,791.3553,703.1135
759.92676,787.326,792.1612,599.9634
786.1172,794.9817,797.3993,743.8095
807.8755,803.8461,796.5934,899.7436
796.1905,799.81683,794.9817,880.40295
782.0879,795.38464,799.011,729.304
761.53845,794.57874,800.2198,619.304
765.56775,796.99634,801.02563,738.97437
799.81683,796.5934,801.8315,904.57874
805.8608,791.75824,805.05493,895.7143
767.98535,789.7436,804.65204,742.6007
734.5421,790.9524,800.2198,610.84247
759.5238,795.38464,799.81683,697.0696
783.69965,795.78754,804.2491,870.7326
792.5641,797.3993,801.02563,909.81683
772.01465,796.99634,800.6227,693.8461
784.5055,803.44324,797.8022,796.5934
802.23444,797.8022,800.2198,888.0586
806.26373,801.02563,803.44324,942.8571
791.75824,800.6227,803.8461,829.6337
773.6264,793.7729,803.0403,674.10254
766.77655,790.14655,803.0403,691.02563
792.5641,794.57874,798.20514,867.1062
828.022,804.65204,794.9817,963.8095
763.1502,800.6227,800.2198,635.42126
831.6484,802.6374,794.9817,877.98535
778.46155,794.57874,792.96704,688.20514
766.3736,791.75824,790.54944,693.0403
803.8461,790.14655,791.3553,874.35895
826.4103,790.54944,793.7729,973.47986
819.5604,790.9524,797.8022,910.2198
788.1319,794.57874,801.4286,732.9304
776.4469,791.3553,794.57874,686.5934
788.93774,784.5055,792.5641,839.707
811.50183,796.99634,803.44324,960.58606
814.7253,799.81683,801.4286,904.57874
786.52014,794.57874,796.99634,721.6484
776.4469,795.38464,800.6227,662.8205
786.1172,797.3993,802.23444,816.337
814.3223,800.6227,801.8315,940.84247
816.7399,798.60803,801.8315,905.78754
786.9231,791.3553,797.8022,745.82416
774.0293,791.3553,795.38464,652.74725
786.1172,793.36993,800.6227,781.685
809.4872,791.75824,806.26373,928.7546
809.89014,790.54944,802.23444,906.1905
785.31134,794.17584,796.1905,750.65936
763.1502,790.54944,790.9524,624.94507
776.4469,791.3553,786.9231,734.94507
811.50183,800.2198,791.75824,912.23444
826.0073,797.3993,792.96704,921.50183
797.3993,791.75824,792.1612,776.8498
771.6117,793.7729,794.57874,639.85345
783.69965,793.36993,794.9817,720.4396
802.6374,792.5641,798.60803,901.3553
818.3516,799.011,803.44324,945.2747
797.3993,800.2198,802.6374,814.7253
751.06226,789.7436,795.38464,654.35895
759.92676,788.93774,795.38464,694.2491
785.7143,790.54944,794.57874,871.9414
794.17584,790.14655,793.7729,929.15753
789.34064,786.1172,798.20514,814.7253
767.1795,782.49084,794.57874,649.92676
802.23444,788.93774,796.5934,867.9121
764.35895,784.90845,792.96704,684.57874
812.71063,793.36993,798.60803,936.4103
805.4579,796.5934,805.05493,856.2271
799.41394,802.23444,805.8608,699.4872
793.36993,801.8315,796.5934,694.65204
817.5458,800.6227,795.38464,859.0476
844.1392,802.6374,795.38464,958.97437
842.52747,797.3993,792.1612,885.64105
811.50183,792.96704,793.7729,699.0842
788.93774,794.9817,795.78754,674.5055
813.91943,794.57874,795.38464,848.1685
817.5458,790.54944,800.6227,906.5934
806.26373,792.96704,799.011,718.8278
785.7143,798.60803,793.36993,660.80585
799.81683,799.011,795.78754,808.2784
836.08057,801.4286,799.011,939.2308
803.44324,797.3993,795.78754,732.52747
764.7619,794.17584,792.96704,638.6447
838.9011,803.0403,799.81683,911.8315
849.7802,804.2491,801.02563,936.4103
787.72894,797.3993,796.5934,778.46155
832.0513,793.7729,797.8022,965.82416
830.84247,803.0403,796.5934,915.4579
791.75824,802.23444,794.9817,760.7326
830.84247,802.23444,794.9817,942.8571
786.1172,801.02563,798.20514,657.1795
805.05493,799.81683,796.5934,771.6117
838.0952,802.23444,794.17584,931.1722
810.696,799.011,792.1612,793.36993
794.57874,794.9817,790.54944,681.75824
804.65204,794.57874,792.1612,768.3883
838.49817,803.44324,795.38464,942.0513
859.45056,805.4579,794.9817,973.0769
832.8571,797.8022,789.7436,849.3773
805.8608,796.5934,791.3553,701.50183
821.5751,799.81683,792.5641,768.3883
838.49817,801.02563,797.3993,990
830.0366,795.78754,794.17584,876.3736
790.9524,791.75824,786.9231,701.50183
837.6923,802.6374,792.5641,943.2601
791.75824,788.5348,788.5348,736.9597
829.2308,792.1612,791.3553,912.6374
842.9304,800.2198,793.7729,972.27106
827.619,806.6667,799.011,882.8205
788.5348,797.3993,795.38464,707.9487
770.40295,788.5348,789.7436,695.8608
791.3553,791.3553,790.14655,851.39197
813.1135,799.011,795.38464,951.31866
803.44324,798.20514,804.2491,884.83514
761.9414,793.7729,799.81683,699.0842
747.4359,788.1319,788.5348,654.7619
772.8205,788.5348,788.1319,810.293
795.78754,792.96704,797.8022,923.5165
745.42126,790.54944,795.38464,668.86444
786.1172,792.1612,808.68134,769.19415
749.0476,793.7729,804.65204,621.31866
782.8938,793.36993,805.8608,890.07324
778.0586,786.52014,796.5934,845.7509
759.92676,790.9524,801.8315,836.8865
745.42126,786.52014,809.4872,682.96704
737.76556,785.31134,812.3077,609.2308
760.32965,786.9231,802.6374,720.0366
773.22345,792.5641,799.011,857.03296
770.40295,800.2198,802.23444,846.1539
740.58606,793.7729,804.65204,697.0696
712.381,787.326,804.2491,585.05493
732.9304,788.5348,803.44324,690.2198
766.3736,787.72894,799.011,845.7509
764.7619,787.72894,799.41394,846.55676
755.4945,785.31134,799.81683,709.5604
742.1978,783.2967,796.1905,585.4579
745.82416,787.326,801.4286,681.75824
776.04395,788.93774,805.8608,846.1539
770.80585,789.34064,798.60803,759.5238
738.1685,791.3553,799.41394,603.1868
748.24176,790.14655,796.5934,669.67035
784.5055,785.31134,798.60803,875.9707
778.0586,790.54944,798.20514,855.0183
770.80585,788.1319,800.6227,895.31134
759.92676,788.1319,804.65204,792.1612
734.94507,783.69965,803.8461,630.18317
744.21246,779.67035,805.4579,667.6557
778.86444,783.2967,803.44324,850.58606
768.3883,794.9817,796.1905,655.16486
748.24176,789.34064,799.41394,655.9707
771.2088,794.9817,798.60803,819.5604
806.6667,798.20514,796.1905,897.72894
795.78754,786.9231,794.57874,816.7399
765.16486,789.34064,788.5348,633.00366
764.7619,793.36993,783.2967,610.0366
784.90845,791.3553,795.38464,816.7399
798.20514,789.34064,786.1172,792.5641
822.381,790.54944,796.1905,908.20514
784.10254,787.72894,797.3993,908.20514
817.5458,790.54944,798.20514,852.6007
787.326,791.3553,797.8022,676.1172
776.4469,797.3993,798.60803,628.97437
808.68134,797.3993,799.011,791.3553
826.4103,795.38464,803.8461,929.9634
818.3516,800.6227,803.44324,906.1905
799.81683,800.6227,800.6227,743.4066
786.1172,797.3993,802.23444,649.5238
801.4286,793.7729,799.41394,774.43225
826.8132,788.1319,794.9817,927.5458
819.15753,790.9524,797.8022,912.23444
798.60803,793.7729,802.23444,753.8828
778.0586,790.54944,799.011,657.1795
792.1612,792.96704,800.2198,775.64105
826.4103,801.8315,805.05493,937.2161
824.7985,799.81683,798.60803,949.304
799.81683,789.7436,792.96704,782.49084
776.04395,784.10254,789.7436,767.5824
805.4579,784.10254,791.3553,933.5897
824.7985,790.9524,792.5641,966.63007
795.78754,790.54944,791.75824,826.4103
776.8498,787.72894,789.7436,674.10254
796.99634,786.52014,787.72894,745.82416
779.2674,787.326,790.9524,661.2088
828.022,789.7436,789.7436,935.6044
834.4689,792.96704,790.54944,989.59705
815.12823,788.5348,786.52014,867.1062
784.10254,788.1319,782.49084,706.337
783.2967,789.34064,784.90845,731.7216
814.3223,796.1905,787.326,907.3993
827.619,794.57874,788.93774,985.9707
809.89014,788.1319,795.78754,886.04395
780.07324,785.7143,794.17584,712.381
772.4176,784.90845,789.7436,710.7692
802.6374,791.3553,794.9817,883.22345
808.68134,794.17584,796.5934,961.79486
797.8022,794.57874,799.41394,878.3883
774.43225,793.7729,798.60803,697.47253
752.674,789.7436,792.1612,641.06226
773.22345,789.7436,790.54944,807.8755
792.5641,792.1612,799.011,929.5604
788.1319,795.78754,810.696,871.9414
758.315,794.57874,802.23444,683.7729
729.707,788.93774,791.3553,610.4396
755.4945,788.1319,794.17584,768.7912
792.5641,795.78754,801.02563,917.8755
780.87915,795.78754,798.20514,874.35895
758.71796,798.60803,792.5641,693.8461
756.7033,803.44324,792.5641,623.3333
769.19415,804.2491,793.7729,766.77655
788.5348,804.2491,796.5934,905.38464
799.011,803.8461,790.9524,880
796.99634,807.0696,790.54944,730.10986
778.86444,811.0989,790.14655,636.63007
772.4176,810.293,789.7436,757.9121
807.47253,807.47253,791.3553,919.4872
817.9487,811.9048,788.5348,919.0842
800.6227,814.3223,782.8938,776.4469
784.5055,812.3077,783.2967,647.9121
796.99634,813.5165,788.1319,737.76556
821.1722,810.696,787.326,913.44324
821.1722,816.7399,790.14655,941.2454
805.05493,820.7692,791.3553,815.5311
775.64105,815.9341,792.1612,668.46155
775.64105,815.9341,786.1172,700.696
799.41394,817.1429,780.4762,861.06226
819.9634,816.7399,784.5055,935.6044
795.78754,816.337,783.2967,821.978
755.89746,819.15753,782.0879,640.2564
754.2857,815.5311,782.8938,675.7143
792.1612,821.1722,786.52014,850.989
810.696,828.4249,789.7436,915.4579
790.9524,825.2015,793.7729,820.3663
773.22345,824.7985,786.1172,648.315
773.6264,822.381,779.2674,653.1502
785.7143,820.3663,786.1172,832.4542
812.71063,823.9927,791.3553,925.12823
808.68134,830.4396,792.5641,848.1685
781.685,829.2308,791.75824,681.75824
782.8938,823.1868,788.1319,670.07324
796.5934,825.2015,789.7436,823.1868
818.7546,833.2601,787.72894,924.7253
816.337,826.4103,785.7143,869.92676
790.9524,820.3663,785.31134,704.7253
785.7143,818.3516,783.2967,652.74725
809.0842,821.978,793.36993,889.2674
802.6374,817.1429,788.93774,793.36993
792.5641,817.9487,792.96704,732.9304
805.4579,820.3663,792.96704,916.6667
774.43225,818.7546,788.5348,651.53845
790.54944,815.9341,786.1172,771.6117
807.47253,808.68134,786.9231,909.41394
810.293,805.05493,782.8938,888.46155
793.7729,805.05493,784.10254,722.4542
785.31134,804.65204,784.90845,615.6777
805.4579,809.89014,787.72894,728.9011
818.3516,815.5311,796.99634,875.56775
817.5458,811.50183,795.78754,873.95605
794.9817,811.9048,793.7729,747.4359
771.6117,811.9048,793.7729,629.3773
784.90845,806.26373,786.52014,708.3516
819.5604,805.8608,784.10254,872.3443
837.28937,806.26373,789.34064,898.93774
809.4872,800.2198,786.1172,765.56775
764.7619,796.99634,779.67035,614.87177
761.9414,794.9817,780.07324,676.9231
802.6374,798.20514,785.31134,863.47986
821.5751,801.8315,790.9524,923.5165
803.0403,796.5934,787.326,803.0403
766.3736,792.5641,782.49084,641.06226
815.5311,794.17584,782.49084,923.91943
777.25275,796.1905,780.87915,681.3553
811.50183,795.78754,782.0879,854.21246
802.23444,799.81683,784.90845,846.1539
768.3883,792.5641,785.7143,676.1172
757.50916,780.07324,784.10254,670.07324
785.31134,781.685,785.31134,849.7802
809.4872,788.5348,792.5641,956.1539
798.60803,792.1612,796.1905,894.5055
784.5055,791.3553,797.3993,732.9304
794.17584,789.7436,797.8022,718.8278
819.5604,787.72894,794.9817,883.6264
842.1245,789.7436,794.17584,982.3443
835.6777,790.9524,792.1612,922.71063
807.0696,791.3553,792.1612,767.98535
794.57874,796.1905,790.9524,733.3333
812.71063,800.2198,793.7729,879.19415
841.7216,797.8022,800.6227,998.46155
830.4396,789.7436,798.20514,960.989
786.9231,787.72894,792.96704,796.1905
766.77655,790.9524,792.1612,698.2784
792.5641,792.1612,788.93774,813.1135
818.7546,792.96704,787.326,962.1978
821.978,794.17584,790.9524,944.87177
816.7399,792.1612,794.57874,780.87915
792.96704,788.5348,794.9817,676.52014
784.5055,791.75824,794.57874,788.5348
796.99634,798.20514,802.23444,950.10986
808.68134,799.81683,808.68134,947.6923
802.23444,790.14655,801.02563,801.4286
782.0879,783.2967,796.99634,682.5641
797.8022,792.1612,797.3993,771.6117
831.2454,799.011,799.011,941.2454
842.1245,796.99634,799.41394,969.85345
833.2601,801.8315,799.011,833.2601
828.4249,799.41394,788.5348,902.5641
850.58606,802.23444,793.36993,953.73627
844.94507,803.44324,791.75824,837.28937
811.9048,797.3993,789.7436,675.31134
808.2784,792.96704,793.7729,707.1429
825.6044,793.36993,792.5641,878.7912
832.4542,796.1905,795.78754,948.0952
831.2454,803.0403,797.3993,854.61536
805.05493,798.20514,792.5641,668.0586
807.0696,802.23444,792.96704,681.75824
806.6667,797.8022,787.326,735.7509
778.86444,791.3553,793.7729,648.71796
816.337,801.8315,801.8315,919.4872
807.8755,800.6227,803.0403,841.7216
785.7143,798.60803,797.8022,671.28204
799.81683,797.8022,798.60803,824.3956
770.80585,792.5641,792.1612,649.5238
796.5934,793.36993,792.5641,814.7253
830.0366,794.57874,795.78754,919.4872
819.15753,795.78754,802.6374,867.9121
786.1172,801.02563,804.2491,706.337
781.28204,802.23444,804.2491,655.56775
815.12823,800.6227,805.8608,807.47253
822.7839,798.60803,803.8461,938.4249
811.50183,799.81683,803.0403,896.9231
786.9231,798.20514,795.38464,709.5604
767.1795,793.36993,793.36993,631.39197
786.9231,795.38464,796.99634,780.4762
821.1722,801.02563,799.011,921.9048
818.7546,798.60803,797.8022,895.7143
793.36993,796.5934,797.3993,729.304
772.8205,796.99634,796.1905,620.9158
778.0586,796.1905,794.57874,728.49817
804.2491,798.20514,798.20514,888.86444
811.9048,798.20514,800.6227,895.7143
788.93774,792.96704,799.41394,734.5421
763.5531,792.96704,796.99634,608.022
788.1319,804.65204,809.4872,859.0476
807.0696,811.50183,811.9048,888.0586
788.5348,805.4579,805.05493,763.5531
746.2271,798.20514,799.011,598.3516
764.7619,797.3993,800.6227,700.696
751.4652,801.8315,801.4286,651.9414
771.2088,798.20514,802.6374,819.15753
773.22345,795.38464,801.8315,866.30035
768.7912,799.41394,799.41394,758.71796
742.1978,799.81683,794.57874,592.3077
736.55676,798.60803,792.1612,637.03296
776.4469,798.60803,790.14655,816.337
766.77655,795.78754,791.3553,620.5128
814.7253,800.6227,787.72894,877.5824
799.81683,800.2198,791.75824,773.6264
792.96704,796.99634,794.57874,800.2198
770,795.78754,794.9817,608.022
809.89014,797.3993,801.8315,900.54944
796.5934,796.99634,799.81683,831.2454
766.77655,788.1319,794.57874,651.53845
761.13556,784.5055,794.17584,621.7216
792.5641,790.9524,791.3553,792.1612
814.7253,792.96704,795.78754,904.17584
767.1795,786.52014,801.02563,676.1172
774.83514,788.5348,799.81683,753.8828
752.27106,787.326,799.011,599.9634
794.9817,793.7729,799.41394,898.1319
802.6374,800.2198,800.6227,876.77655
812.71063,790.14655,799.011,834.4689
784.90845,790.14655,797.3993,662.01465
772.01465,793.36993,801.8315,622.52747
793.7729,796.5934,803.44324,791.75824
810.293,799.81683,801.4286,927.9487
801.8315,792.5641,803.8461,875.9707
762.74725,794.17584,801.02563,696.26373
736.9597,786.52014,803.8461,591.50183
763.5531,782.49084,805.4579,739.7802
794.9817,783.2967,806.6667,929.15753
795.38464,782.8938,800.2198,927.9487
771.2088,782.0879,793.36993,771.6117
760.32965,779.2674,796.1905,662.4176
774.83514,773.22345,793.7729,781.685
815.12823,782.49084,794.57874,973.47986
819.15753,788.93774,800.6227,1003.2967
791.75824,788.1319,805.05493,863.0769
784.10254,790.14655,809.4872,734.5421
799.41394,783.2967,810.696,826.8132
807.8755,780.87915,810.696,938.022
778.46155,779.2674,807.47253,752.674
780.07324,781.685,801.8315,793.36993
803.0403,782.8938,798.60803,989.19415
821.978,782.0879,809.4872,1049.6337
802.6374,781.28204,802.6374,951.31866
771.2088,785.31134,797.8022,774.0293
817.1429,778.86444,810.293,1000.87915
812.71063,780.4762,800.6227,1050.8425
766.77655,786.52014,798.60803,797.8022
812.3077,786.52014,803.8461,993.22345
828.4249,785.7143,802.23444,1068.9744
805.05493,785.7143,797.3993,962.1978
780.4762,790.14655,795.78754,773.22345
769.19415,789.34064,794.57874,753.47986
789.7436,786.1172,790.9524,926.7399
823.5897,791.3553,790.9524,1033.1135
786.1172,784.90845,791.75824,773.22345
768.7912,778.86444,790.14655,722.8571
792.5641,777.25275,791.3553,880.80585
838.9011,786.9231,796.5934,1007.326
838.49817,782.49084,794.57874,945.6777
823.5897,788.5348,790.9524,963.00366
792.5641,782.0879,795.78754,755.4945
815.12823,781.685,795.78754,933.1868
791.75824,791.3553,795.78754,724.87177
781.685,787.72894,795.78754,606.4103
777.25275,780.87915,798.20514,803.0403
818.7546,784.5055,791.75824,902.5641
