eeg_1,eeg_2,eeg_3,eeg_4
784.5055,798.20514,803.44324,739.7802
790.54944,799.81683,803.0403,768.7912
794.17584,798.20514,805.8608,817.1429
789.7436,796.5934,808.68134,825.6044
782.0879,791.3553,801.8315,785.7143
782.8938,796.1905,802.23444,743.4066
785.31134,801.4286,804.2491,758.315
793.36993,803.0403,805.8608,811.0989
800.6227,809.4872,806.26373,829.2308
795.78754,807.8755,803.0403,793.36993
796.1905,808.68134,802.6374,745.0183
801.8315,811.0989,805.4579,758.71796
796.1905,805.8608,809.0842,798.60803
790.9524,803.0403,804.2491,747.8388
799.41394,813.1135,811.0989,817.9487
789.34064,805.05493,802.23444,738.5714
795.78754,811.0989,808.68134,828.8278
794.57874,808.2784,811.0989,792.5641
787.326,801.4286,805.4579,813.1135
785.31134,801.4286,801.8315,789.7436
792.1612,810.293,804.65204,749.45056
793.7729,811.0989,808.68134,741.39197
792.96704,808.2784,807.0696,792.96704
794.57874,805.4579,803.0403,830.0366
794.17584,806.26373,799.011,804.2491
789.34064,803.8461,794.57874,751.06226
787.326,803.0403,799.81683,732.1245
794.57874,803.8461,801.8315,778.86444
800.6227,805.8608,804.2491,820.3663
793.7729,803.44324,802.6374,804.2491
789.34064,800.6227,793.36993,754.2857
797.8022,802.6374,799.81683,736.9597
805.05493,799.011,807.8755,780.4762
803.0403,797.8022,808.68134,824.7985
798.60803,800.6227,805.05493,824.7985
798.60803,796.1905,799.81683,780.4762
799.41394,795.38464,800.2198,744.21246
803.8461,798.20514,805.4579,782.8938
809.4872,800.2198,810.696,833.663
806.26373,799.41394,810.696,830.4396
799.41394,800.2198,809.4872,790.14655
800.6227,809.0842,817.9487,757.50916
796.1905,808.68134,822.7839,780.87915
790.54944,803.8461,810.696,819.9634
800.2198,808.2784,803.0403,828.022
796.5934,816.337,802.23444,792.5641
788.5348,812.71063,802.23444,749.0476
796.1905,813.5165,802.6374,770.40295
796.5934,815.12823,799.81683,822.381
794.17584,808.68134,799.81683,836.08057
792.1612,807.8755,801.02563,801.8315
790.14655,808.68134,801.8315,751.8681
790.54944,807.47253,807.8755,768.7912
796.99634,807.8755,809.4872,829.6337
799.011,806.6667,807.8755,845.7509
797.3993,804.65204,803.8461,811.0989
799.41394,804.65204,804.65204,758.71796
805.4579,805.4579,811.50183,760.7326
803.0403,803.44324,809.0842,808.2784
800.6227,803.8461,804.2491,831.2454
802.6374,807.47253,801.8315,811.0989
795.78754,804.65204,802.6374,757.9121
792.96704,805.05493,804.65204,748.6447
801.4286,810.696,811.50183,806.26373
804.65204,806.6667,812.3077,842.52747
797.3993,802.6374,802.23444,817.5458
796.1905,807.47253,803.0403,771.2088
797.8022,809.89014,807.8755,761.53845
795.78754,807.0696,810.696,804.65204
791.3553,802.6374,809.4872,841.7216
790.9524,803.8461,806.26373,832.8571
790.54944,802.23444,806.6667,783.69965
794.17584,800.6227,813.91943,759.5238
805.4579,803.0403,820.3663,808.68134
806.26373,804.65204,816.337,851.39197
805.8608,803.44324,819.9634,841.31866
807.47253,802.23444,817.5458,791.3553
799.011,801.4286,804.2491,751.06226
799.41394,803.0403,808.2784,787.326
809.89014,802.23444,816.7399,840.10986
804.65204,801.8315,815.9341,838.9011
801.8315,805.4579,811.50183,756.7033
799.81683,809.89014,812.71063,778.0586
801.8315,801.4286,815.9341,799.011
803.44324,807.8755,816.337,832.4542
800.6227,803.8461,810.293,832.8571
797.3993,803.0403,803.8461,791.75824
793.36993,803.0403,804.65204,752.27106
790.9524,799.41394,809.0842,774.0293
791.75824,802.23444,807.47253,823.5897
786.52014,801.4286,801.8315,826.0073
780.87915,795.38464,789.7436,786.52014
774.43225,802.6374,798.20514,751.06226
776.04395,799.81683,788.93774,738.5714
780.07324,802.6374,800.2198,806.6667
782.0879,802.6374,798.20514,826.0073
780.07324,803.44324,803.44324,795.38464
778.46155,800.2198,804.2491,740.58606
773.22345,801.8315,801.02563,739.7802
779.2674,804.2491,803.8461,800.6227
790.14655,803.44324,805.4579,831.2454
795.78754,805.05493,804.2491,757.9121
791.75824,807.8755,808.2784,808.68134
800.6227,804.65204,803.8461,752.674
810.293,813.91943,807.8755,807.47253
805.8608,805.05493,801.02563,835.6777
797.3993,799.41394,803.44324,813.91943
794.9817,808.2784,804.65204,755.4945
796.99634,811.0989,801.4286,740.989
801.8315,809.4872,810.293,798.60803
794.17584,800.2198,814.7253,830.0366
786.9231,798.60803,813.91943,814.7253
783.69965,807.8755,815.12823,764.35895
784.5055,814.3223,814.3223,737.3626
788.1319,809.0842,806.26373,782.49084
789.7436,805.8608,807.8755,834.0659
783.69965,800.2198,806.6667,819.5604
774.83514,798.60803,803.44324,755.89746
782.49084,808.68134,810.696,761.9414
789.34064,805.4579,811.0989,811.9048
792.5641,801.02563,808.2784,814.7253
776.4469,807.8755,810.293,720.84247
791.75824,804.65204,803.8461,730.10986
794.17584,808.2784,805.4579,762.74725
795.38464,808.2784,809.4872,823.9927
790.54944,797.8022,803.44324,772.4176
792.96704,807.0696,810.696,828.8278
794.9817,811.0989,813.1135,786.9231
792.1612,811.0989,810.696,740.989
796.5934,807.47253,805.8608,768.3883
813.91943,809.0842,809.0842,841.31866
812.3077,807.0696,813.1135,849.7802
803.44324,809.4872,806.6667,798.20514
801.8315,812.71063,803.44324,741.79486
807.0696,809.89014,805.4579,761.53845
812.71063,806.26373,808.68134,827.2161
809.0842,803.44324,812.71063,840.9158
801.02563,807.8755,806.6667,801.4286
793.7729,805.8608,801.4286,740.18317
795.78754,799.81683,801.02563,751.4652
799.81683,804.2491,804.2491,815.5311
796.99634,806.26373,805.4579,836.8865
792.96704,803.0403,802.6374,808.68134
790.9524,799.81683,801.8315,750.65936
797.3993,802.23444,807.0696,751.8681
796.99634,798.60803,808.68134,808.68134
792.1612,795.78754,805.8608,826.4103
801.02563,801.8315,803.44324,803.44324
803.0403,801.4286,800.6227,761.13556
799.81683,797.8022,808.2784,747.03296
797.3993,799.41394,807.8755,795.38464
801.02563,803.8461,807.47253,838.0952
803.0403,804.2491,809.0842,826.8132
796.99634,804.2491,801.8315,769.19415
796.1905,805.8608,800.6227,746.63007
797.8022,803.44324,802.23444,796.1905
801.4286,804.2491,801.8315,836.08057
794.57874,796.5934,794.57874,765.9707
804.2491,802.6374,801.02563,824.7985
801.4286,806.26373,806.26373,778.0586
803.8461,800.6227,804.2491,826.8132
791.75824,802.6374,796.99634,730.5128
807.0696,802.23444,799.41394,827.2161
806.26373,804.65204,801.4286,781.28204
797.8022,801.8315,800.6227,735.7509
799.41394,803.8461,808.2784,776.8498
803.44324,802.23444,809.4872,829.6337
801.02563,799.41394,805.4579,826.8132
791.75824,803.0403,805.4579,783.2967
782.8938,799.81683,802.23444,729.304
792.96704,800.6227,805.4579,757.9121
803.8461,804.65204,809.0842,817.9487
799.011,801.02563,807.8755,829.2308
794.9817,805.05493,807.47253,790.54944
791.3553,806.26373,803.44324,741.39197
791.3553,801.8315,803.8461,762.3443
802.6374,805.4579,807.47253,817.1429
805.8608,805.05493,807.0696,840.10986
800.6227,802.6374,806.26373,811.9048
794.57874,801.02563,803.44324,750.2564
798.60803,800.6227,808.2784,759.5238
807.8755,800.2198,814.7253,830.4396
804.65204,801.02563,815.12823,850.18317
797.3993,802.6374,808.2784,811.9048
793.36993,801.4286,806.26373,751.06226
796.5934,806.6667,811.0989,745.82416
799.011,809.0842,806.26373,809.0842
799.011,805.8608,807.0696,842.9304
796.1905,803.0403,808.2784,817.9487
784.90845,801.02563,799.011,756.30035
781.28204,798.60803,796.99634,739.3773
782.8938,798.20514,801.8315,794.9817
786.52014,802.23444,805.8608,832.0513
790.14655,799.81683,807.47253,819.15753
784.10254,799.011,808.68134,763.5531
784.5055,799.81683,808.2784,734.94507
784.10254,801.02563,801.8315,780.87915
783.2967,802.6374,804.65204,829.6337
786.1172,804.2491,809.0842,824.3956
785.7143,806.6667,807.0696,762.74725
787.326,809.89014,805.8608,735.34796
794.9817,808.2784,809.4872,788.1319
801.4286,805.05493,811.50183,832.0513
798.60803,803.0403,808.2784,829.2308
793.7729,806.26373,805.4579,786.1172
799.41394,810.293,801.8315,749.85345
806.6667,804.65204,807.0696,790.14655
806.6667,802.6374,809.4872,844.94507
809.89014,807.8755,808.2784,848.97437
806.26373,802.23444,801.02563,796.5934
807.0696,800.6227,801.02563,746.63007
805.05493,807.8755,806.26373,770.40295
807.47253,808.2784,807.47253,829.6337
810.696,805.05493,809.0842,842.9304
807.47253,805.8608,806.6667,799.41394
802.6374,811.50183,805.8608,752.674
798.60803,809.4872,802.23444,766.3736
799.81683,805.8608,804.65204,824.3956
796.5934,801.4286,805.8608,834.4689
792.5641,801.8315,803.44324,800.2198
782.49084,802.23444,803.44324,745.82416
780.4762,800.2198,803.44324,749.85345
789.34064,802.6374,806.26373,807.0696
794.9817,802.23444,807.47253,832.4542
795.78754,803.8461,808.68134,813.1135
787.326,799.41394,807.0696,750.65936
790.54944,798.20514,803.8461,744.61536
805.4579,805.8608,811.0989,813.5165
806.26373,807.47253,806.6667,844.94507
799.81683,804.2491,795.78754,809.4872
788.5348,797.3993,796.99634,749.0476
791.3553,799.81683,799.41394,746.2271
796.99634,804.65204,801.8315,797.8022
801.8315,803.0403,806.6667,835.6777
805.05493,800.6227,806.26373,825.6044
800.2198,801.4286,801.8315,766.3736
796.99634,802.6374,803.0403,737.76556
802.23444,806.26373,810.293,841.7216
797.3993,804.2491,806.6667,790.54944
802.23444,804.2491,813.1135,835.2747
804.65204,803.44324,809.4872,785.7143
795.78754,797.8022,802.23444,746.63007
793.7729,802.6374,807.47253,783.69965
804.2491,811.50183,810.293,834.87177
798.20514,798.20514,803.44324,835.6777
794.9817,793.36993,804.65204,795.78754
794.17584,799.81683,807.8755,752.27106
788.5348,802.6374,806.6667,771.6117
792.96704,803.44324,805.8608,815.5311
799.81683,805.05493,804.2491,825.6044
796.1905,800.6227,801.4286,778.86444
792.1612,799.81683,802.6374,732.1245
791.3553,805.05493,802.6374,765.16486
794.9817,801.02563,801.8315,822.7839
799.81683,800.2198,807.0696,837.6923
796.99634,798.20514,805.4579,794.17584
797.8022,796.1905,805.4579,741.39197
802.6374,799.81683,811.0989,758.315
809.89014,803.0403,811.9048,816.7399
814.7253,805.05493,809.89014,836.8865
809.4872,805.05493,804.2491,801.4286
806.6667,806.26373,805.8608,751.06226
804.65204,805.05493,809.4872,759.12085
803.8461,805.05493,809.89014,816.7399
807.47253,801.8315,805.8608,840.5128
806.26373,796.99634,803.8461,807.47253
797.3993,801.8315,805.05493,747.03296
797.3993,805.8608,809.4872,749.45056
800.6227,802.6374,815.5311,808.68134
794.9817,799.011,809.89014,833.663
791.3553,801.02563,808.68134,819.15753
791.3553,799.011,807.0696,763.5531
782.0879,797.8022,803.8461,746.63007
787.326,798.20514,811.0989,805.4579
801.4286,796.5934,811.0989,830.84247
791.3553,799.011,804.65204,805.8608
780.4762,799.41394,802.23444,758.315
784.5055,796.99634,801.02563,737.76556
791.75824,798.20514,802.23444,786.1172
797.3993,798.20514,802.6374,826.8132
797.3993,795.38464,802.6374,818.3516
797.8022,799.81683,802.6374,769.59705
796.1905,802.6374,805.05493,742.1978
796.99634,799.81683,811.9048,788.1319
799.41394,799.81683,808.2784,838.0952
801.4286,801.8315,799.011,832.4542
796.5934,801.02563,794.9817,776.4469
797.3993,806.26373,799.011,739.7802
806.26373,809.0842,809.4872,780.4762
806.26373,805.05493,809.0842,833.2601
803.8461,801.8315,803.0403,834.4689
796.99634,796.99634,794.9817,777.25275
793.7729,796.5934,791.75824,726.8865
795.78754,798.20514,799.81683,754.68866
797.3993,800.6227,806.26373,810.293
801.8315,803.44324,806.6667,819.9634
799.011,802.6374,803.44324,782.0879
783.69965,796.1905,795.78754,731.7216
786.1172,795.78754,798.60803,752.674
793.7729,799.011,807.8755,819.9634
788.1319,801.02563,806.26373,826.8132
788.5348,805.4579,799.011,788.93774
794.57874,804.65204,798.20514,740.989
791.3553,802.23444,802.6374,743.00366
784.5055,803.0403,799.41394,795.78754
786.52014,804.2491,794.9817,821.5751
786.1172,804.65204,798.60803,796.1905
783.69965,807.0696,796.5934,749.85345
785.31134,805.4579,795.78754,751.8681
790.9524,803.44324,801.4286,807.47253
796.5934,803.8461,801.8315,835.6777
798.20514,801.02563,802.23444,812.3077
796.1905,802.6374,801.02563,761.53845
793.7729,803.44324,801.8315,748.6447
791.3553,796.5934,801.02563,792.1612
796.99634,798.60803,802.23444,831.6484
801.02563,803.0403,805.4579,821.1722
795.78754,800.6227,802.23444,763.1502
796.1905,796.1905,809.89014,746.63007
801.8315,793.7729,819.15753,801.8315
801.8315,796.1905,811.50183,835.6777
788.93774,798.60803,800.2198,812.71063
786.9231,796.99634,800.6227,766.77655
790.14655,796.99634,801.8315,742.6007
794.9817,803.8461,805.8608,788.93774
794.9817,803.8461,807.0696,830.84247
779.2674,797.8022,803.44324,815.12823
776.04395,796.99634,804.65204,770.80585
784.10254,801.02563,807.0696,741.39197
790.54944,805.4579,808.2784,770.40295
800.2198,808.68134,808.68134,821.978
811.50183,809.89014,811.0989,844.94507
804.65204,801.4286,807.47253,792.1612
792.5641,794.57874,805.8608,738.1685
790.9524,801.4286,813.5165,766.3736
794.9817,804.2491,808.68134,811.0989
803.44324,802.6374,803.8461,832.0513
799.011,801.8315,800.2198,794.57874
786.9231,800.6227,797.3993,732.52747
794.17584,802.23444,803.0403,753.0769
808.2784,800.2198,807.8755,822.7839
804.2491,794.9817,809.4872,837.6923
790.9524,794.9817,803.44324,789.7436
785.31134,796.5934,803.44324,734.5421
789.34064,794.9817,811.0989,749.45056
797.3993,798.60803,816.7399,819.5604
801.4286,799.011,816.7399,850.989
794.17584,797.3993,807.0696,806.26373
787.72894,799.011,806.26373,740.18317
790.9524,798.20514,806.26373,745.42126
801.02563,805.4579,804.65204,808.2784
803.0403,809.89014,808.2784,828.8278
794.57874,803.0403,799.41394,792.5641
789.7436,798.20514,795.38464,737.3626
788.1319,799.41394,802.23444,725.2747
796.1905,801.4286,803.0403,780.87915
797.8022,805.05493,800.2198,821.1722
797.3993,810.293,796.1905,813.5165
799.81683,801.8315,802.23444,737.3626
805.4579,807.0696,793.7729,761.13556
788.1319,798.60803,807.0696,788.5348
789.7436,799.81683,801.8315,812.71063
790.14655,803.0403,800.2198,771.6117
790.54944,798.20514,803.44324,821.5751
800.2198,807.8755,805.05493,738.1685
801.8315,808.2784,807.8755,782.8938
796.5934,804.65204,805.4579,830.0366
798.60803,803.44324,806.6667,824.3956
796.99634,801.02563,804.2491,778.86444
784.10254,801.02563,806.26373,734.1392
783.2967,801.8315,809.89014,767.1795
786.52014,806.26373,811.0989,819.9634
789.34064,808.68134,809.89014,823.5897
788.93774,803.44324,798.60803,777.25275
789.7436,803.8461,797.3993,734.94507
792.1612,803.8461,805.4579,770
787.72894,800.2198,807.0696,821.5751
790.9524,805.8608,807.8755,823.1868
795.38464,808.68134,809.89014,782.8938
795.38464,806.26373,810.696,745.42126
798.60803,809.89014,811.50183,770.40295
801.02563,812.71063,808.2784,824.3956
800.6227,807.0696,807.0696,840.10986
798.60803,801.4286,806.6667,808.68134
794.9817,798.60803,805.8608,760.7326
796.99634,798.20514,808.2784,765.56775
805.8608,806.6667,809.89014,839.707
801.4286,803.44324,809.4872,815.5311
798.20514,798.20514,802.23444,740.989
798.60803,802.23444,810.696,745.42126
808.2784,798.60803,803.44324,804.65204
802.23444,805.05493,811.50183,807.47253
799.81683,806.26373,806.6667,828.4249
797.3993,801.4286,805.05493,801.8315
791.3553,795.38464,802.23444,749.45056
789.7436,798.60803,804.2491,739.3773
791.3553,804.2491,814.7253,794.57874
794.57874,804.2491,814.3223,827.619
790.54944,797.8022,810.696,802.6374
785.31134,794.9817,808.2784,751.8681
786.9231,798.60803,805.4579,733.3333
788.93774,798.60803,806.6667,779.67035
794.57874,798.60803,807.47253,820.7692
795.38464,800.6227,810.293,811.50183
792.1612,802.23444,810.696,762.74725
795.38464,802.23444,807.8755,735.34796
799.81683,803.44324,810.293,785.7143
793.36993,803.8461,811.0989,825.2015
790.9524,806.26373,808.2784,812.71063
790.54944,805.4579,807.47253,768.3883
784.90845,794.9817,806.6667,732.1245
792.1612,796.1905,811.9048,767.5824
798.20514,805.05493,815.5311,815.5311
799.011,805.4579,815.12823,821.1722
803.0403,805.8608,815.9341,782.0879
798.20514,801.02563,812.3077,735.7509
794.57874,798.60803,808.68134,762.74725
796.99634,799.41394,807.47253,813.91943
794.17584,803.0403,803.44324,813.91943
792.1612,803.0403,793.36993,770.40295
796.5934,806.6667,794.57874,726.4835
799.011,810.696,800.6227,752.674
800.6227,807.8755,799.81683,808.68134
799.41394,807.0696,798.60803,818.7546
792.5641,804.2491,802.23444,786.9231
788.1319,801.4286,805.8608,738.97437
786.1172,800.2198,801.02563,740.18317
793.36993,797.8022,799.011,796.1905
799.41394,800.6227,799.81683,819.9634
794.57874,800.6227,796.5934,790.14655
791.75824,799.41394,799.41394,744.21246
794.9817,804.2491,801.02563,745.42126
804.2491,807.8755,804.2491,804.65204
803.8461,806.6667,809.4872,839.707
802.6374,804.2491,805.8608,812.3077
800.6227,801.02563,800.2198,751.06226
799.41394,800.2198,802.6374,738.1685
807.8755,806.6667,806.26373,790.9524
806.26373,804.2491,805.4579,827.619
804.2491,803.8461,805.4579,815.12823
806.6667,809.89014,810.696,766.77655
801.02563,803.0403,806.26373,781.28204
808.68134,805.8608,809.0842,830.84247
809.4872,810.696,800.6227,766.77655
813.91943,811.9048,807.47253,824.7985
804.65204,805.8608,801.4286,739.3773
807.8755,808.2784,813.1135,792.1612
803.0403,807.8755,814.7253,827.2161
794.17584,807.0696,809.0842,811.50183
790.14655,807.47253,807.0696,766.3736
800.6227,806.26373,808.68134,736.9597
787.72894,803.8461,807.47253,732.1245
789.34064,804.2491,805.4579,768.3883
792.1612,809.4872,805.4579,816.7399
801.4286,812.71063,805.4579,819.9634
803.44324,811.50183,803.44324,782.49084
785.31134,797.3993,807.8755,740.989
778.46155,786.9231,809.4872,770.80585
782.8938,793.7729,805.05493,809.89014
786.1172,796.99634,804.65204,815.9341
790.9524,799.41394,803.8461,778.0586
785.31134,804.2491,805.8608,727.6923
788.93774,805.4579,812.71063,756.30035
800.6227,806.6667,807.8755,813.91943
796.99634,811.0989,804.2491,826.0073
795.78754,811.0989,803.0403,793.7729
796.1905,808.68134,807.47253,746.2271
798.20514,808.68134,816.337,757.50916
795.38464,802.6374,815.12823,813.5165
791.75824,791.3553,811.0989,826.8132
786.9231,796.1905,808.2784,788.93774
783.2967,798.20514,807.47253,738.1685
791.75824,794.17584,812.3077,746.63007
792.1612,794.9817,813.91943,803.0403
790.54944,798.20514,810.696,830.4396
792.1612,801.02563,810.293,805.8608
790.14655,803.44324,809.89014,749.0476
790.9524,803.8461,808.68134,743.4066
791.75824,799.81683,811.0989,801.02563
798.60803,801.8315,813.91943,832.0513
793.7729,799.81683,808.2784,803.0403
789.34064,790.9524,799.011,749.85345
799.41394,795.78754,803.8461,745.0183
802.23444,798.60803,813.1135,794.57874
807.47253,803.44324,817.9487,830.4396
806.26373,805.4579,813.5165,813.5165
802.23444,801.02563,807.0696,759.92676
805.05493,801.02563,809.0842,741.39197
808.2784,802.23444,805.8608,787.326
813.5165,806.26373,801.02563,830.84247
813.1135,802.23444,801.02563,821.1722
812.71063,794.17584,803.0403,777.25275
809.0842,795.38464,809.4872,738.1685
801.4286,800.2198,812.3077,767.5824
805.8608,804.2491,810.696,821.978
804.2491,801.4286,808.68134,822.7839
792.1612,796.1905,805.8608,771.2088
788.93774,799.41394,811.50183,763.95605
784.90845,794.17584,807.0696,730.10986
790.14655,800.6227,810.293,815.12823
787.72894,796.5934,806.6667,813.5165
787.326,801.02563,807.47253,774.0293
781.28204,796.99634,806.26373,730.5128
783.69965,794.9817,810.696,749.85345
795.38464,803.44324,817.1429,811.9048
798.20514,803.0403,811.9048,821.978
785.7143,795.38464,803.8461,773.22345
785.31134,793.36993,803.44324,734.94507
792.5641,797.8022,807.8755,751.06226
790.9524,800.6227,808.68134,792.1612
795.38464,810.293,809.4872,813.5165
802.23444,809.89014,809.0842,792.96704
799.41394,800.6227,802.6374,746.2271
795.38464,799.011,806.26373,750.2564
801.02563,803.44324,812.3077,810.696
803.44324,803.8461,804.2491,833.663
795.78754,803.0403,801.02563,803.44324
790.9524,799.81683,803.0403,749.85345
791.75824,800.2198,806.6667,735.7509
800.2198,805.4579,812.71063,791.75824
808.68134,802.23444,815.5311,832.8571
803.44324,799.011,811.9048,815.12823
795.78754,801.02563,805.4579,760.7326
795.38464,807.47253,808.68134,742.1978
811.9048,813.91943,817.9487,841.7216
803.44324,809.4872,815.12823,825.2015
783.69965,800.6227,813.1135,766.3736
800.2198,811.0989,813.1135,791.75824
785.31134,798.60803,817.9487,750.65936
792.5641,802.23444,814.7253,797.3993
792.5641,803.44324,805.8608,829.2308
788.93774,800.6227,800.6227,821.978
789.34064,799.81683,800.6227,779.2674
789.7436,798.20514,804.2491,748.24176
788.1319,801.8315,809.0842,787.326
790.14655,803.44324,806.6667,828.4249
791.75824,804.2491,802.6374,826.8132
792.5641,806.26373,804.2491,789.7436
790.14655,798.20514,802.23444,745.0183
791.75824,796.1905,799.41394,771.2088
796.5934,799.41394,806.6667,824.3956
799.011,796.99634,809.89014,829.6337
801.02563,799.011,800.6227,789.7436
791.75824,796.99634,794.17584,743.00366
791.3553,798.20514,799.011,758.71796
801.8315,801.8315,803.8461,814.3223
805.05493,803.44324,805.05493,834.87177
799.011,801.8315,806.6667,795.38464
790.9524,796.1905,809.0842,742.1978
795.78754,796.99634,807.0696,757.9121
802.6374,803.8461,806.6667,811.0989
795.78754,803.0403,807.8755,826.4103
794.57874,798.60803,808.2784,801.02563
797.3993,801.4286,810.696,753.0769
795.78754,804.2491,807.8755,755.09155
805.05493,808.68134,804.65204,817.5458
809.0842,806.26373,809.0842,849.3773
801.8315,801.8315,810.293,822.7839
797.8022,808.68134,801.8315,760.7326
806.6667,807.8755,799.41394,753.8828
819.15753,805.05493,805.4579,819.5604
820.3663,805.05493,811.9048,849.7802
810.293,800.2198,813.5165,817.5458
807.0696,798.20514,811.9048,759.92676
808.2784,797.8022,811.0989,748.24176
816.7399,803.44324,817.9487,809.4872
820.3663,803.44324,818.3516,844.94507
807.8755,798.20514,811.9048,819.15753
801.4286,799.41394,811.9048,765.9707
799.41394,803.8461,815.12823,745.82416
800.2198,802.23444,813.91943,789.7436
803.44324,803.0403,809.89014,829.6337
803.8461,803.0403,807.47253,814.7253
798.20514,799.011,804.65204,758.71796
791.3553,800.6227,807.47253,723.663
795.38464,803.8461,806.6667,768.3883
806.26373,808.68134,805.8608,824.7985
807.8755,804.65204,806.6667,814.7253
797.3993,794.17584,806.26373,763.1502
793.36993,796.99634,804.65204,732.1245
799.41394,800.2198,806.26373,772.01465
799.41394,800.6227,812.71063,819.5604
801.8315,805.05493,810.696,822.7839
799.011,804.65204,807.0696,778.86444
792.96704,804.2491,811.0989,741.79486
797.8022,802.23444,812.3077,770.40295
799.011,804.65204,809.0842,821.5751
805.05493,807.0696,814.7253,840.9158
807.47253,806.26373,818.7546,803.0403
790.54944,798.20514,807.47253,740.58606
790.14655,791.75824,805.4579,752.27106
801.02563,798.20514,813.1135,816.337
807.0696,803.8461,817.9487,836.4835
809.0842,801.4286,812.3077,802.6374
809.89014,805.8608,808.2784,755.89746
811.50183,808.68134,812.3077,761.13556
818.3516,807.0696,813.5165,810.696
814.7253,803.0403,807.0696,828.8278
805.4579,799.81683,799.81683,799.41394
806.6667,802.23444,802.6374,753.8828
811.9048,807.47253,810.293,754.2857
808.68134,808.68134,811.50183,797.3993
806.6667,803.44324,807.0696,824.3956
807.47253,799.011,807.0696,817.1429
799.81683,799.81683,808.68134,761.53845
794.9817,804.2491,807.47253,736.1539
803.0403,809.89014,808.68134,792.96704
805.4579,806.6667,803.0403,832.8571
803.0403,800.2198,800.2198,737.76556
802.6374,802.6374,803.44324,817.9487
805.05493,801.8315,807.47253,786.52014
804.2491,802.23444,803.44324,766.3736
804.65204,801.8315,808.2784,834.0659
801.8315,796.5934,806.26373,827.619
798.20514,792.96704,803.0403,766.3736
787.326,793.36993,798.60803,728.49817
790.14655,798.60803,803.0403,770.80585
796.1905,798.60803,801.4286,817.9487
795.38464,796.5934,796.1905,815.12823
796.5934,794.9817,798.60803,766.77655
793.36993,797.3993,802.6374,730.10986
797.8022,803.44324,805.05493,766.77655
799.011,804.2491,803.8461,817.1429
795.78754,803.44324,800.2198,816.7399
803.8461,803.44324,797.3993,781.685
796.1905,803.44324,793.7729,729.304
793.36993,804.2491,795.38464,744.21246
808.68134,805.05493,803.44324,811.0989
818.7546,804.2491,803.0403,831.2454
805.05493,805.8608,794.57874,780.07324
793.7729,801.8315,794.9817,724.4689
797.8022,797.8022,794.9817,754.2857
807.47253,802.23444,795.78754,817.5458
800.2198,810.293,796.5934,788.93774
812.71063,810.293,799.011,757.50916
810.293,810.696,799.41394,748.24176
804.2491,805.05493,797.3993,807.0696
802.6374,805.8608,798.60803,828.022
805.4579,808.68134,800.6227,801.02563
801.4286,805.8608,803.0403,749.0476
796.99634,805.4579,798.20514,740.58606
805.05493,808.2784,796.1905,822.381
795.38464,804.65204,793.7729,789.7436
794.57874,798.20514,793.7729,818.7546
795.38464,798.20514,790.54944,799.81683
789.7436,801.8315,794.57874,749.85345
779.2674,800.6227,798.60803,727.28937
784.10254,803.8461,801.02563,783.69965
786.1172,804.2491,796.5934,823.1868
787.72894,801.02563,790.14655,802.6374
789.7436,802.23444,789.7436,749.85345
788.1319,806.26373,791.75824,728.49817
793.36993,805.8608,793.7729,771.2088
795.38464,801.8315,796.1905,813.91943
801.02563,803.0403,798.60803,809.4872
801.02563,806.6667,801.02563,761.13556
792.5641,803.44324,800.2198,727.28937
792.1612,801.8315,797.8022,767.1795
798.60803,805.4579,800.2198,825.6044
796.5934,802.6374,799.81683,823.5897
784.90845,798.60803,790.9524,778.0586
786.9231,799.011,789.34064,740.58606
796.1905,801.02563,796.5934,772.8205
804.65204,805.8608,805.4579,829.6337
804.2491,804.65204,808.2784,831.2454
799.41394,801.02563,806.6667,787.72894
796.5934,799.81683,801.02563,745.42126
798.20514,799.011,800.6227,768.7912
803.8461,801.02563,801.02563,815.9341
804.2491,802.23444,798.60803,821.1722
797.3993,798.20514,793.36993,783.69965
796.99634,803.0403,795.78754,739.7802
804.2491,811.0989,802.6374,760.7326
806.6667,810.696,807.47253,813.5165
807.0696,811.0989,806.6667,833.663
809.0842,807.47253,801.02563,800.2198
801.02563,801.4286,799.41394,738.97437
792.96704,801.8315,803.0403,745.0183
794.57874,805.05493,809.0842,798.20514
803.8461,810.293,811.50183,826.4103
798.20514,808.68134,807.47253,800.2198
788.93774,807.0696,803.0403,740.18317
790.14655,800.6227,804.2491,737.3626
790.54944,794.57874,808.68134,790.54944
795.38464,801.02563,814.7253,822.7839
788.5348,799.011,810.696,801.8315
777.6557,792.5641,802.23444,748.24176
783.2967,788.93774,806.26373,739.7802
798.60803,791.75824,816.337,792.1612
804.2491,796.99634,812.71063,830.4396
796.99634,794.17584,805.05493,819.15753
793.36993,797.8022,808.2784,774.83514
785.31134,797.3993,811.0989,786.1172
787.72894,795.38464,814.7253,820.7692
789.7436,794.17584,813.1135,807.8755
788.93774,799.81683,808.2784,748.24176
787.326,803.8461,812.3077,763.95605
786.9231,804.2491,807.0696,736.55676
790.9524,796.1905,809.89014,776.04395
796.5934,799.41394,810.696,820.7692
801.8315,808.2784,801.4286,819.15753
801.02563,810.696,801.4286,777.6557
797.8022,805.4579,808.2784,741.39197
800.2198,800.6227,807.0696,771.2088
803.8461,799.41394,808.68134,821.978
801.4286,801.8315,811.0989,828.022
800.6227,804.65204,805.05493,784.10254
799.011,801.8315,801.8315,740.989
799.81683,806.26373,806.26373,778.46155
803.8461,807.8755,810.293,829.6337
803.8461,798.20514,811.0989,834.0659
799.41394,796.99634,812.71063,794.17584
789.34064,796.99634,811.0989,736.9597
788.93774,802.23444,812.3077,750.65936
796.1905,809.4872,813.1135,807.8755
792.5641,803.8461,813.1135,822.7839
798.20514,803.8461,811.0989,796.99634
798.60803,805.8608,814.3223,747.8388
789.7436,798.20514,814.7253,747.03296
793.7729,794.9817,819.5604,806.26373
795.38464,798.20514,827.619,834.4689
788.93774,795.38464,815.5311,799.41394
789.34064,791.75824,809.89014,745.42126
789.7436,792.1612,813.1135,750.65936
786.52014,790.54944,816.7399,807.8755
791.75824,792.1612,819.9634,841.31866
797.3993,803.0403,823.5897,815.9341
793.7729,807.8755,821.978,754.68866
800.6227,807.0696,819.5604,746.2271
801.4286,802.6374,816.7399,828.022
794.9817,801.02563,814.7253,806.26373
791.75824,803.8461,807.0696,735.34796
796.5934,801.4286,812.3077,791.75824
800.2198,799.41394,806.26373,819.15753
805.05493,806.26373,805.05493,777.25275
803.8461,802.23444,811.50183,751.8681
797.3993,799.011,813.1135,833.663
792.1612,807.0696,812.71063,754.2857
807.8755,807.47253,819.9634,796.99634
792.1612,791.3553,813.91943,787.326
781.28204,790.14655,812.3077,817.9487
783.2967,797.8022,809.0842,808.2784
784.5055,801.8315,805.05493,765.56775
786.1172,800.2198,803.44324,732.1245
794.57874,803.0403,806.26373,778.86444
800.2198,803.0403,809.4872,823.5897
790.54944,802.23444,807.8755,815.9341
782.49084,799.41394,806.26373,777.25275
783.2967,794.9817,807.8755,735.34796
789.7436,797.3993,814.3223,762.74725
789.7436,796.1905,812.3077,819.5604
789.34064,790.14655,807.8755,828.4249
791.75824,793.36993,808.2784,791.75824
792.5641,799.81683,802.6374,741.39197
798.60803,798.20514,806.26373,759.12085
803.44324,800.2198,817.1429,821.1722
802.23444,804.65204,821.5751,838.9011
803.8461,798.60803,815.12823,804.2491
801.4286,796.5934,813.5165,752.27106
799.011,802.23444,814.3223,766.77655
810.293,804.2491,815.5311,824.3956
822.381,800.6227,816.7399,847.3626
816.337,796.1905,813.91943,823.9927
804.2491,795.78754,816.337,770.80585
802.6374,794.9817,818.7546,768.7912
810.293,803.0403,822.7839,828.022
812.71063,809.89014,823.9927,859.45056
801.02563,801.8315,815.12823,836.08057
797.3993,799.011,809.4872,774.0293
807.47253,803.44324,813.5165,763.95605
811.0989,800.6227,819.15753,818.3516
807.0696,799.41394,816.7399,846.55676
801.4286,803.0403,810.293,829.6337
791.3553,799.011,803.8461,776.8498
791.75824,797.8022,805.05493,754.68866
797.8022,802.6374,811.9048,809.0842
797.3993,802.6374,812.71063,836.08057
798.60803,806.26373,815.9341,855.0183
794.9817,796.99634,811.50183,783.2967
795.78754,801.4286,813.5165,755.09155
801.02563,804.65204,815.12823,796.99634
807.0696,803.8461,818.3516,843.3333
808.68134,802.23444,814.3223,832.8571
809.0842,801.8315,807.0696,779.67035
804.65204,807.47253,807.47253,744.21246
804.65204,805.8608,808.68134,836.08057
797.3993,809.0842,811.0989,781.685
817.1429,807.47253,810.293,842.1245
809.89014,803.8461,808.68134,798.60803
797.3993,803.44324,809.4872,747.8388
797.3993,808.68134,810.293,767.5824
802.23444,807.8755,806.6667,822.381
802.23444,812.3077,811.50183,837.6923
809.4872,811.9048,812.3077,803.8461
804.65204,801.02563,807.8755,751.8681
799.011,808.68134,812.3077,772.4176
804.65204,816.7399,811.50183,832.4542
804.65204,808.68134,805.8608,845.34796
801.4286,803.0403,806.6667,810.293
799.41394,797.8022,809.4872,763.95605
801.8315,798.20514,809.4872,772.01465
804.65204,805.8608,810.293,819.9634
800.6227,806.6667,810.293,835.2747
799.011,804.65204,814.3223,802.6374
802.6374,801.4286,812.71063,758.71796
807.0696,803.0403,809.4872,763.95605
808.68134,801.4286,805.4579,806.26373
805.4579,798.20514,802.23444,825.6044
813.5165,803.0403,801.02563,807.47253
813.1135,805.8608,801.8315,759.5238
803.44324,806.26373,805.05493,746.2271
809.0842,808.2784,807.8755,795.78754
810.293,804.65204,809.89014,836.08057
803.8461,796.5934,807.47253,818.3516
796.1905,796.1905,807.47253,754.2857
797.8022,803.8461,817.1429,743.00366
799.011,802.6374,819.15753,796.5934
799.41394,799.011,811.9048,829.6337
798.20514,802.6374,811.50183,821.978
795.38464,795.78754,807.0696,765.56775
794.17584,794.57874,802.6374,732.52747
787.72894,803.0403,809.89014,769.59705
788.93774,804.65204,810.293,813.5165
788.1319,805.8608,802.23444,811.9048
786.9231,804.65204,799.81683,767.1795
790.14655,795.38464,805.8608,738.97437
787.326,791.75824,812.3077,774.0293
790.14655,799.81683,815.12823,819.5604
792.1612,804.65204,810.293,815.9341
783.69965,794.57874,802.23444,769.19415
784.90845,789.34064,801.02563,733.3333
797.8022,798.60803,808.2784,771.2088
804.65204,805.8608,810.696,829.2308
810.293,805.8608,807.47253,838.9011
809.0842,800.6227,801.8315,797.8022
799.41394,795.78754,799.41394,743.8095
790.9524,794.57874,801.4286,752.27106
794.57874,799.41394,802.6374,816.7399
796.99634,800.2198,803.44324,829.6337
794.9817,797.8022,799.011,791.3553
797.8022,801.8315,798.60803,755.89746
796.99634,796.1905,805.05493,765.16486
796.5934,790.54944,811.0989,817.1429
796.99634,790.9524,818.3516,836.4835
787.72894,794.57874,811.0989,805.8608
786.52014,799.81683,799.81683,761.53845
794.57874,801.4286,804.2491,765.56775
803.44324,804.2491,815.9341,819.5604
805.8608,799.41394,824.3956,848.97437
793.36993,794.9817,809.89014,819.5604
788.93774,800.2198,795.78754,761.9414
788.93774,798.60803,805.05493,751.8681
790.14655,796.99634,811.0989,803.44324
794.57874,795.78754,808.68134,833.663
788.93774,790.9524,802.23444,805.4579
788.1319,794.17584,799.41394,753.8828
794.57874,799.41394,801.8315,748.6447
801.8315,801.8315,804.65204,796.99634
799.81683,797.3993,807.8755,827.2161
796.99634,801.02563,806.26373,814.3223
794.9817,805.8608,803.8461,761.13556
789.34064,803.44324,800.6227,725.2747
792.1612,799.81683,804.65204,774.83514
797.8022,801.02563,811.9048,828.022
794.9817,804.65204,805.8608,816.337
786.9231,799.41394,799.011,763.1502
780.4762,794.57874,799.41394,724.4689
781.28204,802.6374,811.9048,763.1502
787.326,808.2784,820.3663,817.5458
778.86444,798.20514,805.05493,811.9048
778.46155,792.1612,795.38464,768.3883
784.10254,797.3993,798.60803,723.663
780.07324,800.2198,805.05493,755.4945
786.9231,805.8608,811.9048,818.7546
793.7729,805.4579,813.91943,825.2015
792.96704,801.8315,813.91943,784.10254
789.7436,803.44324,808.2784,735.34796
789.34064,801.4286,806.26373,757.9121
790.54944,799.81683,809.4872,816.337
785.7143,798.20514,810.293,830.84247
782.8938,794.17584,808.2784,794.17584
788.1319,801.02563,808.68134,742.1978
794.57874,809.0842,813.5165,758.71796
791.75824,799.41394,813.1135,816.7399
793.7729,794.17584,809.89014,832.4542
796.5934,797.3993,810.293,804.2491
790.9524,798.20514,808.2784,754.2857
788.5348,800.2198,804.2491,751.4652
793.36993,807.47253,803.8461,813.91943
795.78754,808.2784,809.4872,841.31866
796.99634,808.2784,811.0989,807.0696
793.36993,805.4579,798.20514,751.8681
796.5934,798.20514,802.23444,748.6447
797.8022,796.5934,815.9341,799.011
790.54944,800.2198,815.12823,826.8132
793.7729,804.65204,810.293,809.89014
792.96704,802.23444,804.2491,747.8388
788.93774,800.6227,803.8461,732.9304
792.5641,799.011,810.696,797.3993
804.2491,800.6227,809.4872,840.9158
799.41394,803.0403,801.8315,817.9487
791.3553,805.8608,796.99634,761.13556
794.17584,802.23444,796.99634,737.3626
795.78754,797.8022,805.05493,788.5348
799.011,804.2491,812.3077,833.663
798.20514,809.0842,803.8461,815.12823
797.3993,805.4579,795.38464,767.5824
797.8022,801.4286,798.20514,742.6007
801.4286,800.2198,803.44324,779.67035
806.26373,800.2198,809.4872,832.8571
803.0403,799.41394,808.2784,828.8278
795.78754,800.2198,800.6227,772.8205
792.5641,801.8315,801.02563,729.304
800.6227,799.81683,804.2491,761.53845
809.4872,798.60803,809.4872,821.978
804.2491,804.2491,809.0842,835.6777
795.78754,799.41394,794.57874,788.93774
790.54944,795.38464,794.57874,734.1392
786.9231,797.3993,802.23444,753.47986
797.3993,797.3993,809.0842,824.7985
807.47253,800.2198,810.696,852.6007
801.8315,799.81683,810.293,802.6374
790.54944,798.60803,811.50183,737.3626
794.17584,799.011,809.0842,763.5531
800.2198,794.9817,807.47253,826.4103
799.81683,797.3993,806.6667,843.3333
801.4286,806.26373,810.293,815.5311
797.8022,801.8315,804.65204,753.0769
787.72894,792.96704,803.44324,747.8388
787.326,794.17584,806.26373,803.44324
791.75824,799.011,802.6374,828.8278
791.3553,800.6227,801.8315,801.8315
798.20514,803.44324,805.4579,751.06226
803.0403,797.8022,809.4872,749.0476
800.6227,792.5641,812.3077,804.65204
791.3553,800.6227,805.4579,810.696
788.1319,795.38464,802.23444,750.2564
800.2198,797.3993,809.89014,838.0952
799.011,797.8022,810.293,743.8095
803.8461,803.0403,810.293,807.0696
792.1612,800.6227,799.41394,811.0989
796.1905,803.0403,803.0403,836.8865
795.38464,804.2491,797.8022,762.74725
799.011,805.4579,803.8461,743.4066
799.41394,797.3993,817.9487,840.9158
795.38464,796.5934,814.3223,830.4396
796.1905,802.23444,806.6667,775.2381
796.1905,805.8608,807.0696,739.3773
793.7729,803.44324,810.696,784.5055
786.9231,796.99634,812.71063,836.8865
781.685,795.78754,809.0842,830.84247
777.6557,797.3993,803.8461,771.6117
778.0586,791.3553,805.05493,726.8865
783.2967,796.99634,804.2491,781.28204
800.6227,801.8315,812.3077,795.78754
794.57874,807.8755,807.0696,844.1392
792.96704,804.65204,809.4872,834.4689
782.49084,801.4286,808.2784,782.8938
780.87915,805.05493,801.4286,728.49817
783.69965,806.26373,798.60803,756.30035
790.14655,804.65204,801.4286,821.1722
792.96704,809.0842,803.8461,833.663
790.54944,807.47253,801.8315,786.9231
788.1319,799.41394,804.65204,736.55676
795.38464,802.23444,804.65204,755.09155
801.02563,811.9048,803.8461,813.5165
791.3553,808.2784,804.2491,829.2308
794.9817,801.8315,803.8461,801.4286
789.34064,798.20514,794.57874,733.73627
774.43225,796.99634,785.7143,726.08057
783.2967,792.1612,790.14655,801.8315
792.96704,787.326,793.36993,842.9304
782.49084,787.72894,786.52014,801.8315
771.2088,782.49084,780.07324,728.9011
781.28204,785.31134,790.9524,730.10986
796.1905,790.9524,796.5934,806.26373
784.10254,786.1172,786.9231,834.87177
776.8498,786.1172,784.5055,805.05493
780.4762,789.7436,788.93774,753.47986
786.1172,797.8022,796.99634,743.00366
784.10254,796.1905,793.7729,795.78754
782.0879,791.75824,786.52014,827.619
786.9231,794.17584,783.69965,815.5311
784.5055,794.17584,780.4762,751.8681
783.2967,797.3993,784.90845,716.0073
794.17584,800.2198,790.14655,776.4469
804.2491,798.60803,788.93774,830.4396
800.2198,796.5934,787.72894,821.1722
793.7729,797.3993,785.7143,763.1502
782.8938,797.3993,778.86444,714.7985
782.8938,800.2198,782.0879,763.5531
788.1319,796.5934,782.8938,822.381
794.17584,796.99634,782.49084,817.5458
791.3553,799.011,778.86444,759.92676
790.14655,797.3993,782.49084,720.0366
790.9524,790.14655,790.54944,753.8828
795.38464,789.34064,785.31134,809.89014
795.78754,793.7729,782.0879,815.9341
780.07324,787.326,771.2088,756.7033
788.5348,786.52014,774.83514,720.0366
804.2491,791.75824,787.72894,753.0769
809.4872,794.57874,788.5348,815.12823
809.4872,794.17584,788.1319,832.4542
800.6227,796.99634,787.72894,785.7143
799.81683,798.20514,792.5641,736.55676
806.26373,796.99634,794.57874,760.32965
808.2784,801.02563,796.99634,826.8132
804.2491,801.4286,798.20514,842.52747
793.36993,800.2198,794.57874,798.20514
789.7436,798.60803,791.75824,740.18317
799.41394,798.60803,794.57874,745.82416
803.44324,796.5934,798.60803,811.0989
797.8022,796.5934,799.41394,845.34796
796.1905,801.02563,799.81683,811.50183
789.34064,796.1905,797.8022,740.18317
786.52014,800.6227,795.38464,729.707
795.78754,804.2491,794.57874,796.1905
808.2784,804.2491,801.4286,840.9158
811.0989,804.65204,797.3993,816.7399
798.20514,801.02563,787.72894,740.58606
794.57874,802.6374,793.36993,726.08057
805.05493,799.81683,795.38464,801.8315
808.2784,799.41394,789.34064,837.6923
805.4579,795.38464,790.54944,815.9341
798.20514,801.02563,792.96704,760.32965
798.20514,837.6923,795.38464,730.5128
796.99634,852.1978,800.2198,780.07324
794.17584,848.1685,794.9817,833.2601
789.7436,842.9304,788.93774,820.7692
780.4762,843.3333,790.14655,754.68866
777.25275,842.9304,791.3553,718.4249
779.67035,839.304,788.93774,764.7619
784.10254,840.5128,784.10254,822.7839
782.8938,838.49817,784.90845,826.4103
782.0879,833.2601,782.8938,765.56775
782.49084,834.4689,778.86444,712.381
786.9231,838.9011,784.90845,753.0769
794.9817,839.304,792.5641,817.9487
792.96704,836.8865,789.7436,822.381
786.52014,836.4835,783.2967,771.2088
781.685,839.707,782.49084,710.3663
790.9524,840.9158,787.72894,740.58606
799.41394,836.08057,792.1612,815.5311
792.1612,827.2161,793.7729,826.4103
788.5348,831.6484,793.36993,780.4762
786.1172,829.6337,794.17584,719.6337
785.31134,821.1722,792.5641,734.1392
795.38464,819.9634,786.9231,814.3223
798.60803,816.337,784.10254,833.663
796.5934,813.91943,781.685,791.75824
791.75824,815.12823,780.87915,729.304
791.3553,814.3223,782.8938,731.31866
805.8608,812.3077,786.1172,809.89014
802.6374,813.5165,784.10254,839.707
792.96704,811.9048,778.0586,799.41394
792.1612,808.2784,782.8938,739.3773
782.0879,807.0696,786.1172,733.3333
785.31134,809.0842,784.10254,797.8022
795.38464,811.0989,785.7143,839.304
793.36993,810.293,783.69965,813.91943
796.1905,809.4872,784.90845,743.8095
794.57874,813.1135,784.10254,724.0659
792.5641,816.7399,784.5055,785.31134
795.38464,814.3223,785.7143,827.619
794.17584,806.6667,786.9231,807.47253
793.7729,808.2784,786.1172,741.39197
797.3993,814.7253,791.3553,721.2454
798.60803,816.337,792.96704,777.6557
804.65204,817.9487,794.17584,831.6484
811.0989,814.7253,804.2491,830.4396
794.9817,807.0696,795.78754,759.12085
780.87915,806.26373,785.31134,714.7985
785.7143,804.65204,790.54944,765.56775
797.8022,805.4579,799.41394,827.2161
798.60803,802.6374,799.81683,825.2015
791.75824,803.8461,794.9817,767.5824
785.7143,805.8608,795.78754,719.6337
784.90845,800.6227,797.8022,760.7326
800.6227,803.8461,800.6227,830.4396
805.4579,807.47253,807.0696,842.9304
794.57874,804.2491,802.23444,778.0586
784.90845,799.81683,799.41394,715.6044
794.57874,803.8461,799.41394,753.47986
800.2198,804.65204,796.5934,826.0073
790.14655,798.60803,799.41394,832.0513
782.49084,796.1905,795.78754,777.25275
784.90845,803.44324,797.8022,717.619
793.7729,801.4286,801.4286,745.42126
801.4286,802.23444,804.2491,826.8132
796.5934,811.0989,810.696,842.1245
788.93774,810.293,805.4579,790.14655
775.2381,803.0403,796.1905,713.9927
783.2967,806.26373,799.41394,730.9158
798.20514,807.8755,801.8315,817.5458
782.8938,798.60803,788.5348,826.0073
776.8498,797.3993,788.1319,787.326
778.0586,796.5934,793.36993,737.76556
786.1172,798.60803,798.20514,739.3773
795.38464,803.44324,803.8461,805.4579
787.326,799.011,796.99634,828.8278
788.93774,796.99634,794.17584,808.2784
789.7436,791.75824,798.60803,746.2271
789.7436,793.36993,802.23444,728.9011
802.23444,800.2198,803.8461,796.99634
809.4872,803.44324,810.696,846.1539
799.011,798.60803,813.5165,826.4103
786.52014,787.72894,794.9817,747.4359
791.3553,793.7729,795.38464,721.6484
801.4286,804.65204,807.8755,798.60803
805.05493,804.2491,812.3077,856.63007
795.78754,800.2198,814.7253,838.9011
789.7436,800.6227,810.293,767.1795
790.9524,807.47253,813.5165,729.707
783.69965,805.4579,811.50183,782.8938
790.54944,806.26373,810.293,837.6923
802.6374,812.3077,805.8608,828.022
790.54944,811.0989,794.9817,762.74725
788.93774,803.8461,796.5934,720.4396
802.23444,803.8461,808.2784,773.6264
806.6667,809.89014,813.5165,842.1245
800.2198,810.293,805.4579,837.28937
793.7729,809.89014,799.41394,769.59705
792.1612,807.47253,798.60803,709.5604
790.9524,800.6227,796.1905,742.6007
792.5641,797.3993,793.7729,817.5458
794.57874,795.78754,797.3993,836.08057
800.2198,795.38464,799.81683,796.5934
801.4286,799.011,800.2198,738.5714
789.34064,806.6667,796.99634,745.0183
777.6557,805.05493,796.5934,809.89014
777.6557,797.8022,801.02563,839.304
782.49084,800.2198,799.81683,805.05493
782.8938,796.99634,795.38464,738.5714
784.90845,799.41394,799.011,747.03296
790.14655,802.23444,797.3993,818.3516
797.8022,798.20514,803.8461,852.6007
789.34064,799.81683,810.293,818.7546
782.8938,797.8022,792.5641,730.10986
779.67035,799.41394,796.1905,741.79486
780.87915,799.011,800.2198,812.3077
780.07324,803.8461,801.8315,854.21246
785.31134,799.011,799.81683,816.7399
789.34064,796.1905,796.99634,747.8388
783.2967,801.02563,791.75824,726.08057
787.72894,801.4286,793.7729,797.3993
799.41394,803.8461,805.4579,845.34796
793.36993,801.4286,800.6227,820.7692
786.52014,796.5934,786.1172,749.45056
796.5934,804.65204,796.5934,789.34064
802.6374,802.6374,800.6227,850.989
790.14655,799.41394,788.93774,718.8278
807.0696,800.6227,802.6374,837.28937
806.26373,803.0403,798.20514,772.4176
801.8315,801.02563,799.011,730.9158
802.6374,798.60803,805.8608,791.3553
813.91943,802.6374,810.696,860.65936
813.5165,804.2491,813.91943,853.00366
799.011,799.41394,804.65204,783.2967
792.1612,796.1905,797.3993,738.97437
791.75824,795.78754,805.8608,790.9524
800.2198,797.8022,808.2784,854.21246
811.50183,802.23444,806.26373,857.8388
803.44324,801.4286,802.6374,797.8022
800.2198,803.8461,800.6227,740.989
805.4579,810.696,806.6667,776.8498
809.0842,806.6667,808.68134,848.97437
808.2784,801.4286,809.4872,861.06226
807.0696,803.8461,806.6667,804.65204
799.41394,806.6667,798.60803,734.94507
799.011,808.68134,799.011,758.71796
808.2784,808.2784,804.65204,838.0952
805.8608,806.6667,801.02563,848.1685
797.8022,804.65204,798.20514,803.0403
793.7729,800.2198,799.011,739.7802
792.96704,799.011,802.6374,752.27106
805.4579,805.05493,808.68134,837.28937
819.9634,805.4579,812.71063,872.74725
811.9048,797.8022,801.8315,830.84247
806.26373,797.8022,796.1905,761.53845
813.5165,801.4286,807.0696,771.6117
820.3663,802.23444,808.68134,846.1539
830.0366,805.05493,808.68134,882.8205
830.4396,806.26373,809.4872,855.42126
819.5604,807.0696,809.4872,784.10254
817.5458,807.8755,816.337,777.6557
815.9341,803.0403,821.5751,842.1245
812.71063,798.20514,814.7253,875.9707
809.4872,801.02563,805.05493,852.1978
805.4579,807.47253,803.0403,784.10254
795.78754,801.02563,801.8315,746.2271
798.60803,800.2198,806.6667,805.8608
808.68134,805.8608,814.3223,867.1062
800.6227,801.4286,805.8608,846.1539
795.78754,798.60803,801.4286,771.2088
794.17584,799.81683,803.44324,734.5421
795.38464,803.44324,803.44324,787.72894
805.05493,804.65204,803.0403,848.5714
804.65204,800.6227,798.20514,839.304
797.3993,799.41394,794.17584,775.64105
790.54944,803.0403,796.99634,730.5128
800.2198,810.293,806.26373,783.2967
811.50183,811.0989,803.8461,853.00366
809.0842,805.05493,801.4286,854.61536
809.4872,803.0403,803.8461,802.6374
807.0696,801.8315,804.65204,747.8388
810.696,802.6374,802.23444,787.326
818.3516,805.05493,806.6667,855.82416
819.15753,804.65204,807.8755,865.89746
816.7399,805.05493,806.26373,823.9927
814.7253,799.81683,805.4579,757.9121
819.9634,807.47253,813.5165,861.8681
814.7253,801.4286,808.68134,781.28204
829.6337,809.4872,806.26373,876.3736
820.7692,806.6667,796.99634,824.3956
810.696,801.8315,798.20514,749.85345
816.7399,805.4579,805.05493,764.35895
817.5458,810.293,809.0842,843.3333
812.3077,808.2784,809.4872,866.7033
807.47253,808.2784,807.47253,821.5751
804.65204,808.68134,806.26373,751.8681
807.47253,806.26373,812.3077,756.7033
808.68134,806.26373,810.696,829.2308
808.68134,804.65204,809.0842,857.03296
805.4579,801.8315,804.65204,819.15753
799.81683,802.23444,806.26373,754.2857
801.4286,799.011,812.71063,745.42126
806.26373,801.02563,814.7253,816.7399
812.71063,805.05493,816.337,863.8828
816.7399,807.8755,813.91943,844.1392
812.71063,807.0696,809.4872,771.2088
805.4579,802.6374,807.47253,748.6447
808.68134,803.0403,811.50183,818.7546
808.68134,802.6374,812.71063,858.6447
809.89014,805.4579,812.3077,844.1392
798.20514,798.60803,805.05493,779.67035
794.57874,798.20514,804.2491,738.97437
803.0403,802.6374,814.3223,796.1905
807.0696,798.60803,814.3223,854.21246
810.696,799.41394,814.7253,849.3773
803.8461,802.23444,808.2784,779.2674
802.6374,807.0696,807.8755,734.5421
807.47253,808.2784,813.1135,784.90845
805.4579,806.6667,807.8755,834.0659
804.65204,806.26373,813.91943,839.304
802.23444,808.68134,819.9634,786.1172
796.99634,809.0842,814.7253,731.31866
796.1905,804.2491,810.293,767.98535
801.02563,802.23444,811.9048,835.6777
801.02563,799.81683,807.47253,845.7509
797.3993,796.99634,804.65204,794.9817
798.20514,798.20514,805.4579,734.1392
806.26373,802.6374,806.6667,759.12085
807.8755,803.44324,810.696,830.84247
803.8461,803.44324,808.68134,847.76556
807.0696,803.8461,806.6667,806.6667
804.65204,801.02563,809.4872,739.7802
800.2198,796.5934,813.1135,755.09155
809.89014,799.41394,815.5311,834.4689
818.7546,803.44324,816.337,860.65936
812.3077,802.6374,811.50183,819.5604
801.02563,802.23444,812.71063,750.2564
801.8315,806.26373,815.9341,754.2857
809.4872,808.68134,817.1429,832.4542
813.1135,805.05493,821.978,857.8388
809.4872,804.65204,819.9634,818.7546
800.2198,802.23444,806.26373,749.45056
794.17584,803.0403,810.696,735.7509
805.8608,807.8755,824.7985,811.50183
818.3516,806.26373,826.8132,864.68866
805.4579,803.0403,821.978,834.87177
793.7729,801.8315,819.15753,759.92676
791.75824,801.8315,820.3663,732.52747
799.011,804.2491,824.7985,801.4286
797.3993,798.60803,817.5458,852.1978
782.8938,792.1612,799.41394,824.7985
774.83514,790.54944,790.9524,757.1062
778.46155,794.57874,791.75824,720.0366
788.1319,796.99634,792.96704,772.8205
787.72894,793.7729,790.14655,828.8278
790.54944,796.1905,782.49084,828.4249
789.34064,803.44324,765.9707,776.04395
797.3993,807.0696,755.89746,840.9158
798.20514,804.65204,752.674,838.49817
783.2967,801.02563,747.03296,777.6557
780.87915,800.6227,737.76556,724.0659
784.5055,795.38464,772.01465,763.5531
786.1172,796.99634,770,719.6337
790.14655,803.0403,741.79486,765.9707
793.7729,803.0403,745.42126,836.4835
799.81683,802.23444,743.00366,848.1685
803.8461,806.26373,750.65936,806.6667
803.44324,805.4579,752.27106,747.8388
803.0403,801.4286,745.42126,770.40295
802.6374,803.0403,747.03296,839.304
797.8022,801.02563,747.03296,853.4066
791.75824,803.44324,751.4652,815.9341
786.1172,805.4579,757.1062,741.79486
784.90845,802.6374,754.2857,746.2271
791.75824,801.02563,754.2857,821.1722
792.5641,808.68134,756.30035,843.73627
789.34064,808.2784,756.7033,803.44324
787.72894,796.99634,760.7326,741.79486
784.10254,797.3993,770.80585,743.00366
790.9524,804.65204,777.25275,816.7399
798.20514,802.6374,782.8938,859.85345
788.5348,794.9817,784.5055,824.7985
777.25275,794.9817,777.25275,739.7802
772.8205,799.81683,780.07324,717.619
779.67035,799.81683,786.9231,799.011
788.1319,796.5934,781.28204,849.3773
790.9524,802.23444,772.8205,816.337
799.011,807.0696,767.98535,751.06226
791.75824,803.44324,772.01465,731.7216
778.0586,797.8022,778.0586,793.7729
778.86444,798.60803,781.28204,841.7216
778.46155,807.47253,782.8938,814.3223
777.25275,805.4579,780.4762,748.6447
786.1172,802.23444,778.46155,767.1795
778.0586,801.4286,774.83514,713.9927
786.1172,797.8022,786.52014,826.4103
779.2674,802.23444,788.93774,818.3516
769.59705,800.2198,774.83514,750.65936
762.3443,788.93774,773.6264,694.65204
765.16486,793.7729,790.14655,743.4066
766.77655,803.8461,793.36993,811.50183
770.80585,800.2198,789.7436,817.5458
772.8205,800.2198,794.9817,764.7619
757.50916,799.011,798.20514,693.0403
767.5824,800.6227,811.9048,804.65204
769.59705,803.44324,808.68134,818.7546
767.1795,805.4579,801.4286,770.80585
765.56775,806.6667,802.6374,718.8278
775.2381,803.44324,811.0989,751.06226
776.04395,798.60803,807.47253,812.71063
773.6264,803.0403,796.99634,821.1722
757.50916,798.20514,803.0403,726.8865
776.4469,802.6374,794.9817,783.69965
768.3883,800.6227,795.78754,716.4103
771.2088,801.4286,801.02563,733.73627
776.4469,800.6227,808.68134,804.2491
774.43225,801.8315,811.9048,821.1722
775.64105,798.60803,811.0989,794.9817
770.80585,794.9817,811.50183,726.08057
763.5531,797.8022,807.47253,713.9927
780.4762,805.4579,807.0696,796.99634
782.49084,799.41394,808.68134,830.84247
767.5824,792.5641,810.293,789.7436
766.3736,790.9524,818.3516,724.4689
769.19415,792.96704,821.5751,717.2161
777.6557,804.2491,818.3516,791.3553
776.8498,804.65204,816.337,829.6337
775.2381,796.5934,815.12823,803.0403
776.04395,796.5934,811.50183,738.5714
774.0293,799.81683,810.293,708.7546
783.2967,808.2784,815.9341,778.0586
791.3553,805.4579,813.1135,837.28937
786.1172,791.3553,815.5311,816.337
784.90845,788.93774,821.1722,745.0183
780.07324,795.38464,813.5165,707.9487
780.4762,801.02563,816.337,775.64105
796.1905,803.44324,823.5897,842.52747
794.9817,799.81683,819.5604,829.2308
784.5055,799.011,820.3663,769.59705
780.4762,796.1905,815.5311,725.6777
786.52014,797.3993,815.9341,772.8205
790.9524,802.23444,817.9487,838.9011
784.90845,800.6227,817.5458,831.2454
784.5055,799.011,817.5458,767.98535
785.31134,802.6374,813.1135,714.3956
790.54944,798.60803,812.71063,758.71796
799.81683,796.1905,816.7399,831.6484
796.99634,799.41394,817.1429,834.0659
787.72894,804.2491,811.9048,776.8498
784.90845,804.65204,811.9048,720.84247
793.7729,802.6374,812.71063,758.71796
799.41394,806.6667,815.9341,827.619
793.7729,803.0403,819.5604,835.6777
783.69965,795.78754,818.3516,786.9231
779.67035,800.2198,813.5165,721.6484
778.46155,803.0403,816.337,732.9304
788.93774,805.05493,831.2454,815.5311
800.2198,807.0696,833.2601,848.1685
794.9817,802.6374,817.5458,794.57874
796.99634,805.4579,813.5165,730.10986
804.65204,809.0842,821.5751,743.4066
808.68134,805.8608,826.8132,805.8608
808.2784,803.8461,832.8571,844.94507
806.26373,801.4286,837.6923,815.5311
798.60803,801.4286,834.4689,743.4066
796.1905,806.6667,834.0659,734.5421
799.011,805.4579,831.6484,799.81683
800.2198,802.6374,824.3956,847.3626
807.8755,802.6374,820.7692,840.9158
805.05493,799.41394,819.9634,768.7912
789.34064,801.8315,819.15753,732.52747
799.41394,808.68134,819.15753,805.4579
811.9048,808.68134,821.5751,862.27106
805.8608,803.8461,830.4396,841.7216
793.7729,794.17584,830.0366,767.98535
785.31134,794.17584,823.9927,734.5421
788.1319,793.7729,824.7985,796.99634
792.5641,792.96704,826.0073,855.42126
795.78754,800.6227,828.8278,839.707
790.14655,799.011,820.3663,768.7912
790.9524,799.41394,805.8608,730.10986
801.4286,803.44324,808.2784,783.2967
801.8315,799.011,811.0989,833.2601
794.9817,799.011,806.6667,827.2161
796.5934,802.6374,809.4872,780.87915
798.20514,804.2491,815.5311,740.58606
798.60803,803.0403,823.5897,782.0879
803.8461,802.23444,830.4396,844.5421
801.02563,799.41394,823.9927,840.10986
791.3553,796.99634,815.5311,784.10254
786.52014,796.5934,813.91943,734.94507
794.57874,801.8315,819.5604,767.98535
801.02563,809.89014,826.0073,840.5128
796.1905,805.4579,823.5897,861.4652
792.5641,798.60803,819.15753,800.2198
790.14655,799.41394,816.337,731.7216
788.5348,799.41394,821.978,755.89746
792.1612,798.60803,826.4103,834.87177
795.78754,800.2198,821.1722,863.8828
796.5934,795.38464,816.337,820.7692
795.38464,791.3553,818.7546,747.03296
790.54944,789.34064,821.5751,750.65936
796.5934,793.36993,823.1868,827.619
799.81683,800.2198,821.978,857.4359
801.02563,802.6374,819.15753,825.2015
809.89014,800.2198,815.12823,765.56775
806.26373,798.60803,813.1135,745.82416
803.44324,798.20514,809.4872,806.26373
813.5165,804.2491,808.2784,858.6447
810.293,807.8755,817.1429,835.2747
803.44324,804.2491,819.15753,762.3443
805.4579,804.2491,815.5311,739.3773
816.337,801.4286,821.1722,859.0476
808.2784,795.38464,811.0989,834.87177
813.91943,805.4579,822.7839,808.68134
807.47253,796.99634,811.50183,745.0183
805.4579,796.1905,807.0696,769.59705
805.4579,801.8315,807.47253,848.5714
808.68134,804.2491,806.6667,841.31866
802.23444,803.0403,801.4286,743.4066
804.65204,798.20514,812.3077,803.44324
803.0403,802.6374,801.8315,782.0879
807.0696,804.65204,811.9048,792.1612
809.89014,802.6374,812.3077,842.52747
812.3077,803.44324,809.4872,840.9158
809.89014,805.4579,809.4872,786.1172
803.0403,803.0403,808.68134,738.1685
807.0696,803.44324,813.5165,784.90845
812.3077,803.8461,815.5311,843.3333
810.696,797.3993,807.47253,842.9304
799.41394,794.9817,801.02563,793.36993
792.1612,793.7729,802.6374,740.58606
798.20514,801.02563,814.7253,772.4176
807.47253,803.8461,817.9487,840.10986
803.0403,795.78754,807.8755,848.1685
801.02563,799.81683,805.8608,801.02563
798.60803,805.05493,796.1905,798.20514
796.1905,800.6227,807.0696,744.21246
793.7729,804.2491,795.78754,742.1978
798.60803,799.011,801.02563,747.4359
800.2198,799.011,802.23444,806.6667
791.75824,795.78754,804.65204,753.8828
809.89014,802.23444,809.89014,844.94507
805.05493,806.26373,806.6667,843.3333
798.20514,802.6374,809.4872,821.978
808.2784,802.23444,809.89014,820.7692
798.60803,801.4286,802.23444,757.50916
801.02563,803.0403,805.8608,747.8388
804.2491,803.44324,804.2491,813.5165
804.65204,803.0403,804.2491,846.9597
797.3993,799.81683,796.5934,812.3077
790.9524,800.2198,786.1172,759.5238
791.3553,800.2198,798.60803,749.85345
796.1905,796.99634,810.696,806.26373
800.2198,799.011,811.50183,850.18317
792.1612,796.1905,802.23444,833.2601
781.28204,794.57874,788.93774,765.16486
790.54944,802.6374,792.5641,740.58606
799.81683,807.0696,805.4579,806.26373
799.011,807.47253,810.293,847.3626
795.78754,809.0842,807.0696,832.4542
791.75824,807.0696,802.6374,784.90845
791.75824,805.05493,799.41394,741.39197
791.3553,803.0403,797.3993,777.25275
798.20514,813.5165,800.6227,836.4835
796.1905,817.9487,801.02563,835.2747
783.69965,804.65204,790.14655,773.6264
790.14655,802.6374,793.36993,726.8865
798.60803,805.8608,803.44324,772.01465
797.8022,801.4286,806.26373,836.08057
797.8022,803.44324,804.2491,841.7216
794.17584,810.293,797.8022,789.7436
793.7729,809.89014,794.17584,736.1539
793.7729,806.26373,798.20514,768.7912
804.65204,809.0842,801.02563,836.08057
811.9048,814.3223,797.3993,844.5421
795.38464,810.293,790.54944,797.3993
789.34064,801.4286,791.3553,745.0183
793.7729,796.99634,799.41394,762.74725
795.38464,801.4286,799.81683,829.6337
791.3553,797.8022,796.99634,850.58606
786.9231,796.1905,796.99634,812.3077
781.28204,801.02563,791.75824,753.47986
787.72894,803.44324,803.0403,760.32965
794.9817,807.0696,811.9048,818.7546
786.52014,803.44324,805.4579,842.9304
790.14655,803.8461,801.8315,815.12823
790.14655,803.8461,803.0403,750.2564
789.34064,804.65204,805.4579,743.00366
793.7729,803.8461,805.05493,806.26373
796.5934,802.6374,799.41394,844.1392
801.4286,802.23444,799.41394,821.1722
794.17584,801.02563,799.41394,751.8681
794.9817,805.4579,799.011,742.1978
807.0696,807.8755,804.2491,801.02563
802.6374,805.4579,803.0403,838.0952
793.36993,801.8315,795.78754,819.9634
784.5055,799.81683,792.96704,757.1062
786.52014,799.41394,797.8022,730.5128
796.99634,804.65204,804.65204,798.20514
795.38464,804.65204,806.26373,850.989
789.7436,803.44324,801.8315,832.0513
783.69965,803.0403,793.7729,767.98535
780.87915,802.6374,794.57874,730.10986
786.52014,805.4579,802.23444,784.5055
788.1319,799.81683,803.44324,838.49817
788.5348,794.17584,801.4286,834.4689
790.54944,798.60803,804.2491,796.1905
784.90845,799.41394,802.23444,749.0476
787.72894,798.60803,794.9817,832.4542
784.10254,798.20514,797.3993,774.83514
788.93774,801.02563,794.9817,834.87177
794.9817,807.0696,796.99634,786.52014
797.3993,805.8608,795.38464,735.34796
796.5934,802.23444,798.20514,766.77655
801.8315,801.8315,803.0403,836.08057
801.8315,804.2491,801.02563,846.9597
800.2198,807.47253,802.23444,803.0403
799.81683,809.89014,805.8608,752.674
795.38464,810.293,803.8461,766.77655
793.7729,807.47253,799.81683,824.3956
794.17584,803.8461,801.02563,842.9304
793.7729,804.65204,799.011,808.68134
790.14655,806.6667,796.1905,748.6447
787.326,809.0842,799.41394,754.2857
790.54944,808.68134,801.02563,817.5458
797.8022,807.47253,805.4579,846.55676
792.96704,803.0403,799.011,814.3223
780.87915,800.6227,792.5641,755.4945
780.87915,797.8022,800.2198,747.8388
785.31134,799.81683,805.8608,805.4579
784.5055,805.4579,802.6374,836.8865
782.8938,806.26373,801.4286,811.9048
782.49084,799.011,797.8022,759.92676
783.2967,795.38464,795.38464,745.0183
774.43225,799.41394,799.41394,789.34064
770.40295,801.02563,794.9817,822.7839
781.685,799.41394,793.7729,823.1868
780.4762,798.60803,797.3993,761.9414
778.86444,802.6374,799.011,729.304
791.75824,807.8755,804.65204,799.011
795.78754,808.2784,807.8755,849.7802
790.54944,804.2491,810.696,829.2308
786.52014,812.3077,801.02563,737.76556
796.99634,817.1429,807.8755,788.93774
813.5165,817.5458,817.1429,852.1978
808.2784,806.6667,816.7399,845.34796
786.9231,802.6374,805.05493,769.19415
788.1319,799.011,808.68134,778.86444
803.0403,826.0073,829.2308,755.89746
821.1722,837.6923,844.5421,813.5165
818.3516,826.0073,838.49817,863.47986
805.8608,814.7253,820.3663,848.5714
791.75824,810.293,808.68134,796.1905
794.57874,813.91943,813.1135,752.27106
797.3993,808.2784,814.7253,780.4762
794.9817,799.41394,810.696,835.2747
790.9524,799.41394,801.8315,840.9158
790.9524,801.8315,798.60803,797.8022
785.31134,799.011,794.9817,742.6007
779.2674,795.78754,790.14655,759.92676
785.7143,798.60803,791.75824,824.7985
786.1172,795.78754,787.326,849.7802
774.83514,793.7729,782.0879,803.0403
767.1795,797.8022,780.87915,728.0952
771.6117,799.41394,785.31134,734.1392
778.46155,799.011,781.28204,801.8315
786.9231,801.4286,778.46155,832.4542
786.52014,801.8315,783.69965,803.0403
771.6117,794.9817,781.28204,730.9158
767.5824,787.326,773.6264,718.8278
785.7143,789.34064,776.4469,788.1319
788.1319,797.3993,784.90845,830.0366
780.4762,794.17584,783.69965,802.6374
781.685,788.5348,775.2381,741.39197
780.4762,788.1319,767.5824,732.9304
776.4469,786.52014,772.8205,786.1172
778.86444,788.5348,778.46155,818.3516
782.8938,795.38464,776.4469,804.2491
769.59705,790.9524,775.2381,743.4066
764.7619,785.31134,779.2674,722.0513
780.07324,791.3553,785.31134,783.69965
786.9231,791.75824,788.93774,829.6337
779.67035,790.14655,788.1319,821.978
783.69965,792.1612,791.75824,774.0293
788.93774,793.36993,792.1612,745.0183
795.38464,797.8022,791.3553,791.3553
808.2784,801.02563,797.3993,843.3333
804.2491,793.7729,792.96704,834.4689
789.34064,785.7143,782.49084,772.4176
779.2674,786.9231,785.7143,726.08057
777.25275,790.9524,788.5348,765.16486
787.72894,795.78754,784.90845,825.6044
796.5934,798.20514,788.1319,832.0513
783.2967,790.9524,786.1172,779.67035
773.6264,791.75824,791.3553,730.9158
783.69965,796.5934,808.68134,760.7326
785.31134,791.75824,799.81683,822.7839
784.10254,794.9817,786.9231,831.6484
782.49084,792.96704,789.34064,784.5055
772.8205,787.72894,794.9817,729.304
778.86444,788.1319,799.41394,748.24176
781.28204,782.49084,797.8022,805.4579
780.07324,784.90845,799.41394,822.7839
781.28204,791.75824,798.60803,735.7509
783.2967,797.3993,801.8315,745.82416
777.25275,797.3993,803.44324,801.02563
774.43225,792.5641,802.6374,825.2015
783.2967,790.54944,800.2198,788.1319
773.22345,790.14655,800.2198,790.9524
771.2088,789.34064,801.02563,732.9304
769.19415,788.5348,803.44324,732.9304
776.04395,790.54944,795.78754,821.978
772.4176,790.9524,792.1612,794.9817
768.7912,788.1319,799.41394,791.75824
773.22345,788.5348,789.7436,738.97437
780.87915,797.8022,795.38464,729.304
782.49084,809.4872,802.23444,789.7436
791.75824,805.8608,793.36993,830.4396
789.34064,798.60803,787.72894,803.8461
776.04395,798.60803,793.36993,729.304
784.90845,800.2198,801.02563,717.619
801.8315,800.6227,807.47253,787.326
792.5641,802.6374,803.8461,832.0513
788.93774,798.60803,799.41394,826.8132
786.9231,800.6227,797.3993,772.8205
785.31134,805.05493,800.6227,738.1685
790.9524,801.4286,810.696,788.93774
792.96704,798.20514,814.7253,838.9011
792.1612,796.5934,806.26373,823.5897
783.2967,796.1905,798.20514,765.56775
780.4762,798.20514,796.5934,731.31866
794.17584,805.05493,801.4286,778.46155
800.2198,803.44324,803.0403,839.707
793.7729,792.96704,801.8315,840.5128
789.7436,793.7729,805.4579,788.93774
792.5641,794.9817,806.6667,745.0183
801.02563,806.26373,805.8608,832.8571
799.011,803.8461,812.71063,776.04395
811.50183,802.6374,794.17584,840.5128
815.12823,806.6667,795.38464,798.60803
799.81683,798.20514,800.2198,768.7912
815.5311,810.293,811.0989,853.4066
803.8461,809.0842,804.2491,815.12823
786.1172,794.9817,796.1905,744.61536
789.34064,796.5934,799.81683,757.9121
801.02563,800.6227,808.2784,831.6484
799.41394,801.8315,797.3993,748.6447
802.6374,799.81683,815.5311,855.82416
813.5165,801.02563,807.8755,829.2308
799.81683,799.011,804.65204,817.9487
794.17584,802.23444,792.96704,751.06226
790.9524,803.0403,795.38464,749.45056
796.99634,800.2198,794.9817,821.978
796.99634,798.60803,801.4286,850.989
792.1612,799.81683,808.2784,815.12823
791.75824,801.8315,803.44324,751.4652
786.9231,802.23444,806.6667,741.39197
802.6374,804.2491,809.0842,843.73627
797.8022,800.2198,801.4286,819.5604
795.78754,804.65204,815.9341,809.0842
791.75824,803.0403,801.8315,752.674
786.52014,801.8315,802.6374,729.304
791.3553,800.6227,811.50183,789.7436
793.36993,803.44324,814.7253,837.6923
788.93774,802.23444,811.9048,828.8278
790.14655,803.8461,815.5311,772.8205
787.326,805.4579,813.5165,740.18317
787.326,802.6374,813.91943,790.14655
789.7436,796.1905,816.337,831.6484
788.1319,797.3993,816.7399,823.1868
790.9524,803.44324,811.0989,775.64105
794.57874,803.44324,805.8608,737.3626
794.9817,805.4579,810.696,782.0879
786.1172,797.8022,817.5458,837.28937
784.90845,799.011,817.1429,834.87177
792.5641,807.8755,811.9048,786.1172
786.9231,804.2491,808.68134,734.5421
784.90845,803.8461,811.9048,772.4176
792.5641,814.3223,813.5165,840.10986
791.3553,811.9048,805.05493,846.9597
789.7436,803.0403,798.60803,799.81683
787.72894,805.8608,801.8315,747.8388
788.1319,805.4579,811.0989,774.43225
803.44324,805.8608,822.7839,840.5128
802.6374,813.91943,812.71063,846.55676
800.2198,814.7253,796.5934,803.8461
803.0403,807.0696,796.1905,745.82416
803.44324,799.011,807.8755,765.56775
807.8755,808.2784,815.9341,834.4689
799.81683,813.5165,802.6374,843.3333
797.3993,808.2784,797.8022,807.47253
797.3993,808.2784,803.0403,754.68866
800.6227,810.293,801.4286,759.5238
803.0403,808.2784,805.4579,826.4103
801.4286,805.8608,807.47253,858.6447
799.41394,807.47253,802.6374,834.87177
792.96704,803.44324,797.3993,763.5531
794.57874,799.41394,796.99634,739.7802
802.23444,805.4579,804.2491,811.0989
801.8315,806.26373,803.8461,854.61536
808.2784,801.4286,800.2198,840.5128
803.44324,803.44324,792.96704,772.8205
792.96704,800.6227,795.38464,741.39197
801.8315,799.41394,806.26373,815.12823
807.47253,804.2491,800.6227,857.4359
812.3077,812.3077,799.81683,839.304
813.5165,810.696,802.6374,786.52014
796.1905,797.3993,801.4286,744.21246
790.14655,798.60803,805.8608,788.93774
799.81683,804.65204,811.0989,843.3333
796.5934,804.65204,813.1135,841.31866
794.9817,807.47253,806.26373,784.10254
803.44324,815.9341,806.6667,742.6007
811.9048,820.3663,813.91943,801.8315
803.0403,809.4872,816.337,859.85345
794.57874,797.8022,822.7839,845.7509
793.36993,795.38464,816.337,790.14655
790.9524,795.78754,807.47253,742.1978
792.5641,802.6374,811.50183,778.0586
797.8022,810.696,807.47253,838.49817
802.6374,811.9048,807.0696,847.76556
804.2491,813.1135,804.65204,805.8608
810.293,813.5165,803.0403,757.9121
805.05493,806.6667,812.3077,784.10254
799.81683,799.81683,812.71063,841.31866
806.6667,799.81683,814.3223,859.85345
801.4286,809.0842,815.5311,814.7253
792.1612,810.293,805.4579,743.00366
800.2198,806.6667,801.02563,760.7326
807.0696,801.4286,809.89014,838.0952
806.26373,798.60803,812.3077,865.09155
799.011,804.65204,804.65204,823.1868
797.3993,807.47253,800.2198,758.315
796.1905,805.05493,803.44324,753.0769
798.60803,806.26373,807.0696,815.9341
812.71063,815.5311,808.2784,855.0183
814.3223,812.71063,811.9048,832.0513
796.5934,801.8315,808.68134,753.8828
789.34064,802.23444,813.5165,738.97437
798.60803,809.0842,822.381,811.9048
803.0403,813.91943,814.3223,844.94507
806.26373,814.3223,802.6374,820.7692
798.60803,805.8608,796.99634,753.8828
796.99634,797.8022,804.2491,733.3333
794.17584,796.5934,809.0842,797.8022
789.7436,800.6227,809.89014,843.3333
794.17584,802.6374,813.91943,833.2601
794.57874,800.2198,809.4872,775.64105
791.3553,796.99634,802.6374,736.9597
789.7436,801.02563,801.4286,786.9231
792.96704,804.65204,802.23444,840.9158
800.6227,803.44324,806.26373,842.9304
801.8315,805.05493,804.65204,787.72894
794.57874,811.50183,797.3993,736.9597
794.17584,813.5165,801.8315,787.326
806.6667,805.8608,805.05493,851.79486
813.5165,805.4579,810.696,853.8095
795.78754,803.8461,807.47253,784.10254
792.96704,804.2491,795.78754,718.8278
809.89014,811.0989,803.8461,766.77655
812.71063,809.4872,810.293,838.9011
812.3077,807.47253,801.8315,852.1978
811.50183,811.0989,801.4286,803.8461
802.6374,811.0989,809.4872,734.5421
806.26373,803.0403,811.50183,763.1502
814.3223,804.2491,811.0989,836.8865
801.8315,805.8608,803.8461,843.73627
794.57874,800.2198,796.99634,792.96704
796.5934,801.02563,800.6227,737.76556
796.1905,802.23444,802.23444,758.71796
809.4872,807.0696,804.65204,860.65936
803.8461,804.2491,803.44324,832.4542
792.96704,799.81683,797.3993,742.6007
801.8315,801.02563,801.02563,816.7399
794.17584,800.6227,801.8315,748.24176
795.78754,805.05493,806.26373,814.3223
799.011,803.0403,808.68134,846.55676
800.2198,796.99634,805.8608,815.9341
786.9231,798.60803,790.9524,740.58606
787.326,800.2198,787.326,729.304
795.78754,799.41394,795.38464,796.1905
787.72894,796.5934,794.57874,832.8571
786.1172,794.9817,792.1612,811.9048
796.5934,794.17584,789.34064,749.0476
799.81683,796.5934,791.75824,732.52747
805.8608,799.81683,797.3993,797.8022
808.2784,804.2491,795.38464,842.52747
803.8461,801.8315,794.9817,828.4249
798.20514,796.1905,791.75824,759.12085
799.011,803.0403,795.78754,724.0659
800.2198,808.2784,799.41394,787.326
808.2784,806.6667,799.011,847.3626
810.293,804.2491,797.3993,842.52747
795.38464,799.81683,792.96704,772.01465
795.78754,799.81683,796.1905,728.0952
806.26373,805.4579,797.3993,780.07324
803.44324,805.8608,801.4286,840.5128
794.9817,797.3993,805.4579,838.0952
786.1172,797.3993,798.60803,776.8498
788.93774,802.23444,800.6227,738.97437
792.1612,800.2198,805.05493,781.685
795.78754,802.6374,805.8608,849.7802
801.4286,800.6227,804.2491,859.45056
796.5934,797.8022,799.41394,801.8315
793.7729,803.0403,795.78754,741.79486
799.011,805.4579,804.2491,773.22345
805.05493,805.4579,812.3077,842.9304
804.2491,803.8461,810.696,856.63007
804.2491,803.8461,801.02563,809.4872
799.011,804.65204,802.6374,749.0476
794.9817,799.41394,804.65204,763.1502
802.23444,796.99634,801.02563,826.0073
807.8755,795.78754,801.8315,846.9597
803.44324,794.57874,803.44324,801.02563
801.02563,796.1905,803.44324,736.9597
807.0696,801.02563,804.65204,745.42126
807.8755,803.8461,805.4579,814.3223
809.4872,803.8461,806.26373,850.989
809.0842,800.6227,805.05493,819.15753
809.0842,803.44324,799.41394,761.13556
811.9048,805.05493,809.4872,828.4249
809.4872,802.23444,815.9341,869.92676
791.75824,800.2198,807.47253,762.74725
801.4286,801.02563,815.5311,838.0952
782.0879,800.6227,803.44324,740.58606
789.7436,802.23444,806.26373,810.696
797.3993,801.8315,811.9048,862.674
793.36993,802.23444,813.91943,841.7216
785.7143,808.68134,804.2491,757.50916
809.0842,807.47253,799.41394,756.30035
789.7436,807.8755,803.0403,721.2454
799.41394,801.4286,804.65204,786.52014
795.78754,796.99634,805.8608,845.34796
784.10254,792.1612,805.8608,828.4249
774.43225,796.1905,795.78754,752.27106
770.80585,802.23444,798.60803,716.8132
783.69965,800.2198,807.0696,779.2674
790.9524,800.6227,805.4579,840.10986
786.9231,801.02563,803.44324,826.4103
786.9231,801.8315,797.8022,761.13556
787.72894,804.2491,796.99634,717.2161
793.7729,800.2198,808.68134,764.35895
803.8461,805.8608,810.293,840.9158
799.41394,808.2784,803.8461,845.34796
794.57874,804.65204,800.6227,795.38464
794.9817,798.20514,802.23444,745.42126
802.6374,801.4286,812.3077,779.67035
801.8315,805.4579,811.9048,848.1685
796.99634,798.60803,807.47253,850.989
797.3993,796.99634,802.6374,807.8755
801.02563,803.8461,802.23444,750.65936
793.36993,804.65204,808.2784,753.8828
785.31134,797.3993,811.50183,822.7839
791.75824,799.41394,809.89014,850.18317
791.3553,800.6227,808.2784,807.8755
789.7436,803.8461,804.2491,738.5714
797.3993,811.50183,808.68134,750.65936
796.5934,809.89014,809.0842,828.022
801.4286,809.4872,815.5311,863.47986
796.5934,807.0696,815.5311,825.2015
785.31134,808.2784,798.20514,737.3626
790.54944,807.8755,804.2491,726.08057
799.81683,801.8315,813.91943,804.2491
801.02563,803.0403,807.47253,842.9304
798.60803,806.26373,801.8315,811.0989
795.78754,803.0403,801.4286,739.3773
791.75824,800.6227,801.4286,726.8865
796.5934,803.0403,803.8461,800.2198
807.8755,805.05493,807.0696,849.3773
806.26373,802.6374,809.4872,834.4689
790.54944,797.8022,807.0696,763.95605
780.87915,799.41394,806.6667,730.9158
789.7436,802.23444,811.0989,796.1905
799.81683,801.8315,813.5165,849.3773
794.9817,799.011,808.2784,828.022
791.75824,798.20514,805.05493,763.95605
787.326,801.8315,813.1135,730.10986
787.72894,799.011,821.5751,786.52014
799.011,799.011,822.7839,847.3626
790.14655,809.0842,807.8755,768.3883
786.1172,805.05493,807.47253,722.4542
803.44324,807.8755,816.337,838.0952
795.38464,807.47253,805.4579,772.8205
805.8608,804.2491,803.44324,840.10986
800.2198,795.38464,805.4579,842.1245
787.72894,798.60803,808.68134,782.0879
788.1319,805.8608,811.0989,720.4396
796.1905,805.8608,813.5165,760.7326
810.696,805.05493,816.7399,842.52747
813.5165,804.65204,814.7253,855.0183
811.0989,805.4579,805.05493,798.60803
804.2491,805.4579,800.2198,723.2601
798.20514,807.8755,803.44324,743.00366
807.0696,804.2491,804.2491,821.978
801.4286,799.81683,803.8461,842.1245
794.17584,804.2491,805.8608,797.8022
792.96704,805.4579,802.23444,734.94507
794.17584,808.2784,807.8755,739.7802
795.38464,812.3077,811.9048,808.68134
799.81683,806.6667,809.89014,842.9304
796.99634,804.2491,804.65204,811.50183
788.93774,805.8608,801.8315,743.00366
779.2674,799.011,805.8608,732.52747
780.07324,797.3993,807.0696,804.65204
784.5055,804.65204,812.3077,847.76556
784.90845,806.26373,804.65204,755.09155
783.69965,808.2784,812.3077,820.3663
789.34064,803.8461,801.4286,739.3773
794.9817,805.05493,806.6667,808.2784
790.14655,796.99634,807.0696,850.18317
787.326,790.9524,799.41394,825.2015
789.34064,794.57874,794.9817,758.315
788.1319,797.8022,799.41394,728.9011
797.8022,803.44324,804.2491,794.9817
799.81683,804.2491,801.02563,846.1539
794.17584,796.5934,799.41394,832.8571
791.3553,796.99634,804.2491,771.2088
787.72894,802.6374,802.6374,722.8571
786.9231,799.41394,798.60803,773.6264
794.17584,798.20514,801.4286,837.6923
798.60803,796.99634,801.4286,832.8571
788.5348,793.7729,795.78754,769.19415
787.326,797.8022,799.41394,724.0659
796.1905,805.4579,808.2784,783.69965
791.3553,794.57874,805.05493,844.1392
799.011,805.05493,808.68134,849.7802
783.69965,796.1905,801.4286,786.1172
782.0879,799.011,798.60803,726.08057
784.90845,793.36993,803.0403,757.9121
779.67035,796.5934,808.68134,832.8571
779.67035,796.99634,808.2784,842.1245
787.72894,799.41394,806.26373,794.17584
786.1172,799.41394,805.4579,736.9597
783.69965,794.57874,803.44324,756.7033
789.7436,792.96704,807.47253,828.8278
798.60803,792.5641,814.3223,854.21246
800.6227,798.20514,810.293,807.0696
786.9231,796.99634,803.8461,728.0952
796.99634,798.20514,805.4579,742.6007
818.3516,803.44324,812.71063,834.87177
809.89014,798.20514,813.5165,860.2564
803.44324,799.41394,806.26373,812.71063
809.0842,804.65204,805.4579,743.4066
813.91943,811.0989,810.293,740.18317
818.3516,809.89014,814.7253,819.15753
820.3663,800.2198,815.12823,855.82416
819.15753,802.23444,817.9487,829.6337
809.89014,810.696,814.7253,755.89746
806.6667,810.696,806.6667,725.2747
810.293,806.26373,807.8755,796.1905
818.3516,805.05493,806.6667,859.0476
805.8608,809.4872,807.8755,766.3736
821.1722,804.65204,805.8608,840.5128
800.6227,809.0842,817.1429,804.65204
794.57874,811.0989,809.4872,737.76556
803.0403,804.65204,809.89014,842.9304
808.2784,813.1135,817.9487,859.45056
794.17584,799.81683,818.7546,796.99634
796.1905,805.05493,810.293,857.8388
788.5348,805.4579,809.4872,851.39197
792.1612,794.9817,809.4872,774.0293
787.72894,796.5934,820.7692,740.18317
786.9231,800.6227,803.8461,780.07324
794.17584,799.011,803.8461,732.1245
795.38464,798.20514,812.3077,778.0586
803.44324,799.011,813.5165,841.31866
807.0696,799.81683,809.89014,846.9597
795.78754,799.011,802.23444,788.93774
792.5641,790.54944,800.2198,736.55676
797.8022,790.54944,801.4286,766.3736
803.44324,798.60803,804.65204,841.7216
797.3993,798.60803,803.8461,851.79486
802.23444,805.05493,805.4579,802.6374
810.293,803.44324,810.293,747.4359
801.02563,796.5934,806.6667,757.9121
798.20514,794.9817,803.0403,825.6044
801.02563,797.3993,803.8461,850.18317
798.60803,803.0403,804.2491,800.6227
789.7436,801.8315,799.41394,727.6923
795.78754,806.6667,802.6374,747.4359
800.2198,801.4286,808.68134,827.619
788.93774,792.5641,807.8755,847.3626
783.69965,796.1905,808.68134,807.0696
783.2967,798.20514,812.3077,745.0183
779.2674,796.99634,811.0989,738.97437
782.49084,799.011,807.0696,804.65204
788.93774,799.81683,811.50183,845.34796
792.5641,796.1905,805.8608,821.5751
784.10254,799.011,798.60803,749.0476
778.0586,809.4872,809.89014,730.10986
788.93774,811.50183,815.12823,799.41394
794.17584,811.9048,807.47253,850.989
799.81683,813.91943,804.65204,840.9158
799.41394,811.50183,806.6667,767.5824
788.5348,807.0696,806.26373,724.87177
793.36993,809.89014,804.65204,784.90845
798.20514,810.293,808.2784,846.9597
794.9817,805.8608,808.68134,836.8865
790.54944,807.0696,807.0696,767.98535
784.90845,808.68134,809.0842,728.0952
786.1172,803.44324,807.8755,777.25275
793.36993,804.2491,809.89014,838.9011
801.4286,807.47253,809.89014,840.9158
787.326,794.57874,803.0403,775.64105
773.22345,789.7436,803.8461,716.4103
784.10254,796.99634,811.50183,762.74725
786.1172,800.2198,817.1429,834.4689
782.49084,798.20514,815.12823,840.10986
784.5055,799.81683,805.05493,778.0586
784.90845,805.4579,801.02563,716.8132
787.326,801.4286,804.2491,753.0769
794.17584,799.41394,807.47253,826.0073
802.6374,803.44324,808.68134,848.1685
801.02563,796.99634,807.0696,803.44324
801.8315,796.5934,811.50183,745.42126
799.81683,801.02563,821.978,774.43225
786.52014,798.60803,817.9487,839.707
791.3553,800.2198,807.8755,853.4066
800.6227,799.81683,802.6374,809.89014
795.78754,800.6227,798.20514,745.42126
788.93774,798.60803,800.6227,760.7326
794.9817,794.9817,806.6667,834.87177
793.36993,795.38464,806.6667,854.61536
782.49084,799.81683,804.65204,808.68134
772.8205,802.6374,797.3993,728.49817
777.25275,802.6374,796.1905,731.7216
793.36993,804.2491,801.4286,823.1868
795.78754,801.02563,801.02563,855.82416
790.9524,799.41394,796.5934,817.1429
787.326,798.20514,797.8022,746.2271
784.5055,794.17584,795.38464,727.28937
788.1319,795.38464,800.6227,799.81683
792.5641,800.6227,810.696,855.82416
791.75824,797.8022,809.0842,834.0659
791.3553,791.3553,809.89014,759.92676
787.72894,796.1905,805.05493,735.34796
793.7729,798.20514,808.68134,860.65936
790.9524,799.81683,801.4286,805.05493
786.9231,795.78754,810.696,844.1392
782.49084,803.44324,811.0989,741.79486
782.0879,801.02563,809.4872,780.4762
796.5934,806.26373,808.2784,853.4066
788.5348,805.4579,810.696,799.011
786.52014,802.6374,809.4872,776.4469
782.49084,795.78754,807.0696,728.0952
798.20514,807.47253,809.89014,866.7033
784.10254,797.3993,813.5165,779.2674
784.10254,801.02563,818.3516,845.7509
781.685,795.78754,809.89014,843.73627
777.25275,799.011,803.0403,783.2967
781.28204,807.0696,800.2198,729.707
799.81683,806.6667,807.8755,774.43225
794.9817,799.011,812.3077,840.9158
785.7143,798.20514,809.4872,845.7509
781.685,798.60803,803.44324,789.7436
781.28204,807.47253,805.8608,738.5714
778.86444,801.02563,798.60803,714.3956
790.14655,807.0696,814.7253,819.9634
794.57874,803.8461,814.3223,839.304
792.96704,804.2491,806.6667,794.17584
792.96704,801.4286,802.23444,736.1539
792.1612,798.20514,809.0842,752.27106
790.14655,803.8461,813.91943,820.3663
793.7729,807.0696,811.50183,851.79486
804.2491,801.02563,805.05493,820.3663
794.17584,793.36993,811.9048,744.21246
781.685,788.1319,820.3663,738.1685
788.93774,792.1612,824.7985,819.5604
796.99634,790.54944,822.7839,858.24176
794.57874,787.72894,817.9487,828.4249
786.9231,793.36993,823.1868,757.9121
778.86444,792.1612,821.5751,737.3626
787.326,793.7729,824.3956,811.9048
794.17584,800.2198,830.4396,863.47986
783.2967,797.8022,824.7985,830.84247
772.4176,792.96704,810.293,747.4359
776.04395,798.20514,813.1135,726.4835
781.28204,798.20514,825.6044,793.7729
780.4762,792.5641,823.5897,837.28937
783.69965,792.96704,817.1429,822.7839
785.31134,808.2784,811.50183,722.4542
785.31134,800.2198,814.7253,763.1502
796.5934,807.0696,815.9341,790.14655
792.1612,798.60803,815.5311,848.5714
786.52014,792.96704,807.47253,830.4396
782.0879,794.57874,805.8608,764.35895
774.43225,797.8022,806.6667,715.6044
778.46155,799.41394,809.4872,767.98535
787.72894,799.81683,806.26373,839.304
782.0879,796.5934,799.81683,835.6777
770.80585,792.5641,798.60803,767.98535
778.0586,795.78754,804.2491,729.304
776.8498,796.1905,808.2784,767.1795
778.0586,794.57874,811.50183,825.6044
778.46155,796.99634,811.9048,837.28937
772.4176,790.9524,804.2491,785.31134
774.83514,787.72894,802.6374,727.28937
778.0586,794.17584,807.8755,757.9121
782.49084,800.6227,810.293,829.2308
789.7436,803.0403,812.71063,846.55676
794.57874,795.78754,810.293,807.47253
793.36993,797.3993,802.6374,742.1978
790.9524,799.011,799.011,742.1978
799.011,794.57874,802.6374,817.1429
803.0403,801.8315,802.6374,808.68134
808.2784,798.20514,805.05493,852.6007
792.5641,801.02563,799.81683,735.34796
795.38464,804.2491,801.4286,730.9158
803.44324,803.0403,802.6374,803.44324
809.4872,801.4286,802.6374,853.00366
803.44324,803.0403,799.81683,826.4103
793.36993,803.44324,801.02563,746.63007
789.34064,798.20514,797.3993,730.10986
798.20514,795.38464,799.011,812.71063
803.8461,801.4286,803.0403,857.4359
789.7436,806.6667,797.3993,817.9487
776.8498,803.0403,791.3553,742.1978
782.0879,801.4286,789.34064,723.663
795.78754,803.0403,797.3993,798.60803
789.34064,800.2198,795.78754,844.1392
783.69965,795.38464,788.1319,820.3663
788.5348,795.38464,783.69965,757.1062
787.72894,801.02563,786.9231,720.84247
790.14655,802.23444,796.1905,780.87915
799.011,799.011,800.6227,840.10986
796.1905,799.81683,794.17584,831.6484
791.75824,796.5934,788.93774,767.5824
792.5641,793.36993,790.14655,717.619
796.5934,795.78754,794.9817,766.77655
809.4872,800.2198,802.6374,836.8865
811.50183,797.8022,801.8315,844.1392
805.8608,794.9817,794.17584,795.78754
800.6227,801.4286,793.7729,734.94507
794.9817,800.6227,794.9817,761.13556
804.65204,801.4286,791.75824,830.84247
814.3223,803.0403,789.34064,844.94507
804.65204,794.17584,788.93774,794.17584
793.7729,796.1905,792.5641,725.2747
796.1905,803.44324,796.99634,751.8681
791.3553,797.8022,795.78754,822.7839
785.31134,793.36993,788.1319,832.8571
784.5055,796.1905,787.326,784.5055
783.69965,799.41394,786.1172,724.0659
799.81683,811.9048,788.93774,753.47986
811.9048,814.7253,797.8022,835.2747
795.78754,804.2491,795.78754,847.3626
778.86444,799.011,787.72894,797.3993
784.10254,799.011,789.34064,737.76556
790.14655,799.41394,795.78754,740.18317
794.57874,798.20514,795.78754,807.47253
792.5641,797.8022,793.7729,845.7509
790.9524,804.2491,793.36993,813.91943
794.9817,807.47253,799.41394,740.58606
795.78754,809.0842,797.3993,731.31866
800.6227,808.2784,785.7143,801.4286
809.89014,809.0842,786.52014,850.989
808.68134,806.26373,788.93774,828.4249
790.9524,790.54944,788.1319,746.63007
778.0586,793.7729,794.57874,714.7985
780.87915,803.44324,797.8022,780.87915
790.54944,798.20514,801.8315,846.55676
785.7143,793.36993,804.2491,827.619
778.46155,797.8022,798.20514,742.6007
770,798.60803,796.99634,705.12823
778.86444,801.8315,803.44324,776.04395
792.5641,806.26373,804.2491,844.1392
780.4762,800.2198,801.8315,834.4689
760.7326,790.54944,792.5641,759.12085
765.56775,797.3993,792.5641,712.7839
785.31134,804.65204,803.8461,770.40295
783.69965,803.44324,797.8022,834.87177
785.7143,808.68134,796.1905,835.6777
793.7729,805.4579,792.1612,782.8938
784.10254,799.41394,790.54944,732.1245
781.28204,794.17584,803.8461,770
788.5348,795.38464,811.0989,846.55676
788.93774,802.23444,808.68134,853.8095
782.0879,801.02563,801.4286,788.1319
782.49084,803.44324,801.4286,731.31866
785.7143,801.8315,813.91943,762.74725
787.326,800.6227,818.3516,834.0659
788.5348,795.38464,801.4286,848.5714
790.9524,786.9231,791.3553,803.8461
788.1319,793.36993,795.38464,740.989
783.69965,796.99634,797.3993,747.03296
792.1612,796.5934,805.05493,821.1722
801.8315,799.011,812.71063,858.6447
791.75824,793.36993,803.0403,813.91943
781.28204,791.3553,795.78754,734.94507
786.9231,794.17584,800.6227,742.6007
799.81683,800.6227,814.3223,852.1978
794.57874,802.23444,807.0696,819.15753
783.2967,803.0403,807.8755,731.31866
797.8022,797.3993,809.89014,820.7692
797.8022,809.0842,816.337,817.1429
796.5934,800.2198,807.8755,857.4359
782.49084,798.60803,798.60803,736.9597
790.54944,791.3553,801.8315,833.663
782.0879,786.52014,798.60803,760.32965
780.4762,794.9817,800.2198,728.49817
791.3553,799.41394,807.8755,803.44324
803.0403,798.60803,811.9048,864.68866
799.81683,801.02563,807.47253,839.304
788.5348,800.2198,800.2198,765.56775
782.0879,799.011,801.02563,726.4835
788.1319,800.2198,804.2491,783.2967
794.9817,802.23444,796.1905,845.7509
801.02563,808.2784,796.99634,848.97437
800.2198,804.2491,800.6227,778.86444
791.75824,797.8022,795.38464,722.4542
799.81683,805.05493,796.99634,777.6557
809.0842,805.8608,798.60803,842.1245
803.44324,795.38464,795.78754,843.73627
803.8461,792.1612,792.5641,784.10254
800.6227,797.3993,789.7436,725.6777
801.02563,802.23444,792.1612,769.19415
806.6667,802.23444,792.5641,850.989
804.2491,802.6374,784.90845,863.0769
804.2491,802.6374,784.90845,805.8608
790.14655,803.8461,796.5934,734.5421
778.46155,803.44324,801.02563,753.47986
781.28204,799.41394,800.6227,823.5897
788.5348,801.02563,798.20514,848.5714
783.69965,801.8315,790.9524,800.6227
776.4469,803.44324,788.5348,730.5128
782.8938,801.4286,794.57874,756.7033
803.8461,805.8608,805.8608,845.7509
805.4579,811.0989,805.4579,873.1502
793.7729,801.02563,802.23444,757.50916
796.5934,808.2784,802.23444,826.0073
793.36993,801.8315,808.68134,761.53845
794.9817,796.5934,814.3223,832.0513
798.60803,790.54944,809.89014,861.4652
801.4286,793.7729,801.02563,819.15753
797.3993,795.78754,794.9817,750.65936
799.011,803.0403,800.2198,744.61536
810.293,806.26373,807.8755,819.15753
810.293,803.0403,810.293,863.8828
805.05493,801.02563,811.9048,833.663
794.17584,801.4286,805.8608,819.5604
793.7729,799.41394,805.05493,762.3443
790.9524,795.78754,803.8461,725.6777
787.326,793.7729,810.696,786.1172
795.38464,797.3993,808.68134,761.53845
792.1612,797.3993,811.0989,847.76556
793.36993,798.60803,804.65204,841.31866
787.326,797.8022,800.2198,775.64105
791.3553,796.1905,806.26373,731.7216
791.75824,793.36993,809.89014,797.3993
792.1612,795.38464,807.8755,843.73627
782.0879,801.4286,800.2198,730.5128
788.1319,800.6227,805.4579,788.5348
793.7729,797.8022,811.0989,850.58606
794.17584,797.8022,806.6667,838.0952
786.9231,797.3993,796.1905,778.86444
788.1319,796.99634,801.4286,730.9158
803.0403,803.0403,811.0989,778.0586
809.89014,805.4579,808.68134,847.3626
807.47253,800.6227,802.6374,853.00366
808.68134,799.41394,801.02563,801.8315
806.26373,796.1905,800.2198,732.9304
807.8755,798.60803,806.6667,762.74725
810.293,804.65204,809.89014,840.5128
804.65204,801.4286,796.99634,852.1978
800.2198,797.3993,794.17584,802.6374
800.6227,798.60803,796.1905,736.9597
808.68134,803.0403,805.8608,755.89746
808.2784,801.4286,809.4872,832.4542
806.6667,792.1612,801.8315,855.0183
802.23444,791.75824,798.20514,808.2784
792.96704,799.41394,798.20514,737.3626
796.99634,807.47253,801.02563,742.1978
801.02563,805.4579,799.011,821.1722
800.2198,803.0403,801.02563,864.2857
798.60803,799.41394,799.011,839.304
791.3553,796.5934,794.9817,754.2857
787.326,798.20514,800.2198,736.9597
792.1612,799.41394,806.6667,820.3663
786.52014,799.81683,804.2491,855.42126
782.8938,799.011,800.6227,818.7546
789.34064,793.7729,791.3553,731.7216
805.4579,796.1905,793.7729,802.23444
808.2784,800.6227,799.81683,858.24176
780.87915,794.57874,794.17584,748.24176
801.8315,803.44324,804.2491,846.1539
794.57874,799.011,800.2198,775.64105
792.1612,800.6227,801.8315,728.49817
790.14655,808.2784,808.2784,788.5348
791.75824,802.23444,805.8608,852.1978
792.1612,795.38464,797.3993,842.9304
788.1319,798.60803,794.17584,774.83514
782.49084,799.011,796.1905,729.304
790.9524,796.5934,804.2491,793.36993
792.5641,799.011,801.02563,855.0183
781.28204,792.96704,792.1612,835.6777
782.8938,794.17584,792.5641,773.6264
782.0879,796.99634,797.8022,727.28937
784.10254,793.36993,803.44324,773.22345
790.9524,794.57874,805.8608,847.76556
794.57874,800.2198,807.8755,858.24176
788.5348,802.23444,805.8608,799.81683
780.87915,802.23444,798.60803,734.1392
783.2967,801.8315,799.011,765.16486
784.5055,800.6227,803.8461,840.10986
786.52014,805.05493,806.26373,854.21246
784.10254,801.4286,803.0403,802.6374
775.2381,799.011,790.14655,736.55676
782.49084,803.44324,792.1612,755.89746
794.17584,804.2491,803.0403,837.28937
788.1319,797.8022,790.54944,857.03296
782.0879,793.7729,781.685,806.6667
782.49084,799.81683,786.1172,738.1685
790.14655,804.2491,789.34064,752.27106
794.9817,799.81683,791.75824,824.3956
796.99634,801.02563,792.96704,851.79486
797.8022,807.0696,792.1612,826.4103
800.2198,803.8461,794.9817,757.50916
803.8461,799.011,788.5348,742.6007
802.23444,804.65204,789.34064,815.12823
802.23444,804.2491,792.96704,857.03296
792.96704,796.5934,787.72894,819.5604
788.5348,796.99634,785.31134,750.65936
804.65204,806.6667,794.57874,801.8315
802.23444,799.81683,795.38464,857.4359
798.60803,804.2491,787.326,734.5421
796.5934,794.17584,786.52014,831.2454
782.0879,793.7729,782.0879,753.0769
780.4762,799.81683,783.2967,728.0952
794.17584,800.2198,790.54944,802.6374
799.41394,797.3993,799.41394,861.06226
803.44324,799.81683,805.8608,857.8388
797.3993,797.8022,801.8315,794.57874
792.1612,796.5934,794.57874,753.0769
802.23444,799.41394,801.8315,809.89014
809.0842,803.44324,813.5165,864.2857
797.8022,799.41394,791.3553,792.1612
799.41394,800.2198,805.05493,858.24176
790.14655,797.3993,792.1612,734.1392
793.7729,793.36993,801.02563,778.86444
815.5311,799.81683,805.8608,857.8388
814.3223,801.8315,802.23444,864.68866
808.68134,796.99634,798.20514,796.99634
807.47253,797.3993,798.20514,736.9597
801.4286,798.60803,798.20514,774.43225
799.81683,797.3993,795.78754,843.3333
803.44324,794.57874,795.38464,856.2271
800.6227,797.8022,792.96704,807.8755
796.99634,800.2198,790.14655,744.21246
803.44324,801.4286,799.011,765.16486
805.05493,800.2198,804.2491,837.28937
799.41394,797.3993,798.60803,862.674
795.38464,798.60803,794.17584,823.1868
798.60803,795.78754,791.3553,749.85345
799.41394,793.7729,795.38464,761.13556
793.7729,788.93774,798.60803,836.4835
790.14655,784.90845,796.1905,862.674
786.1172,786.52014,794.57874,828.8278
786.52014,791.75824,794.57874,759.92676
789.7436,797.8022,796.99634,761.53845
799.81683,796.5934,795.38464,835.6777
799.41394,794.57874,794.57874,868.315
792.96704,796.99634,792.1612,840.10986
792.5641,797.3993,791.75824,771.2088
790.14655,797.3993,795.78754,752.27106
794.57874,796.99634,798.60803,815.12823
801.02563,794.9817,799.41394,864.68866
803.8461,797.3993,797.3993,848.5714
803.44324,799.81683,790.54944,776.8498
804.2491,801.8315,790.14655,743.8095
809.4872,801.4286,793.36993,807.47253
807.8755,799.81683,792.5641,863.0769
795.78754,799.011,788.5348,845.34796
802.6374,796.99634,788.1319,782.8938
801.4286,795.78754,786.52014,738.5714
790.54944,796.99634,792.96704,786.9231
794.17584,794.9817,794.57874,852.1978
788.93774,790.54944,792.5641,846.9597
786.1172,795.38464,794.17584,786.52014
790.14655,798.60803,759.12085,733.73627
786.9231,796.99634,731.7216,775.2381
792.96704,800.6227,738.97437,850.58606
795.38464,803.0403,749.45056,858.24176
789.7436,793.7729,748.6447,796.1905
783.69965,790.54944,749.85345,737.3626
791.75824,795.38464,766.77655,775.2381
802.6374,800.6227,773.6264,848.1685
809.89014,805.4579,780.07324,864.68866
804.2491,798.20514,783.2967,818.3516
793.7729,791.3553,777.6557,741.79486
795.78754,794.57874,780.4762,755.4945
807.8755,800.2198,786.52014,842.1245
799.81683,794.57874,788.5348,821.5751
808.2784,799.011,790.54944,867.9121
805.05493,798.60803,792.5641,760.32965
816.337,803.8461,799.81683,771.2088
808.2784,805.05493,796.5934,840.10986
803.0403,799.81683,789.34064,868.315
804.2491,800.6227,790.14655,828.8278
802.23444,802.6374,791.3553,757.50916
803.0403,802.6374,790.9524,749.85345
806.6667,803.8461,798.20514,823.5897
808.2784,799.81683,800.6227,866.30035
802.23444,796.99634,797.3993,834.4689
799.011,799.41394,801.4286,759.92676
804.2491,799.011,805.05493,746.63007
804.2491,796.1905,805.4579,816.7399
804.2491,792.96704,807.0696,862.674
806.26373,792.96704,808.2784,845.34796
792.1612,792.5641,804.2491,767.98535
797.8022,800.2198,807.8755,736.55676
807.47253,803.8461,808.68134,806.6667
808.2784,797.8022,805.4579,859.85345
812.3077,799.011,806.26373,850.58606
808.68134,798.60803,804.65204,782.0879
800.6227,801.4286,807.0696,737.76556
807.0696,801.02563,815.5311,796.99634
811.9048,796.1905,810.293,859.45056
808.68134,798.60803,806.26373,856.63007
807.47253,801.4286,801.4286,792.1612
806.26373,800.6227,799.41394,734.5421
798.20514,799.011,810.696,779.67035
793.36993,797.8022,815.12823,843.73627
797.3993,799.41394,813.91943,848.97437
797.3993,803.0403,811.0989,794.17584
790.9524,796.99634,799.011,726.4835
792.96704,792.96704,804.2491,757.50916
795.38464,794.17584,811.0989,836.08057
793.7729,791.75824,800.6227,854.61536
790.14655,792.96704,797.8022,803.0403
783.69965,792.1612,796.5934,730.5128
786.9231,792.5641,804.2491,752.674
795.78754,796.99634,814.3223,833.2601
793.7729,793.7729,812.71063,850.18317
791.3553,795.38464,811.50183,813.91943
792.5641,796.99634,809.89014,749.85345
798.20514,800.2198,803.8461,755.09155
807.8755,801.8315,805.8608,836.4835
805.05493,794.57874,806.26373,861.06226
800.2198,796.99634,802.23444,815.9341
796.5934,801.8315,802.23444,745.82416
796.99634,794.17584,802.6374,736.55676
800.6227,792.96704,807.47253,807.0696
795.78754,794.9817,803.8461,846.55676
793.36993,794.9817,806.26373,820.3663
786.52014,798.20514,803.0403,734.94507
792.96704,799.011,801.4286,810.293
790.9524,798.20514,802.6374,854.61536
780.87915,796.5934,805.05493,759.12085
772.8205,794.17584,806.26373,732.52747
787.72894,798.60803,805.8608,826.4103
786.52014,796.5934,807.8755,750.65936
782.49084,796.99634,807.8755,795.38464
786.9231,798.60803,806.26373,847.3626
780.4762,799.81683,809.89014,836.08057
772.8205,794.9817,807.47253,762.74725
771.2088,794.9817,808.68134,718.022
783.2967,802.6374,813.1135,781.28204
791.75824,803.0403,813.1135,842.9304
788.5348,801.02563,815.12823,842.52747
785.7143,802.6374,813.1135,788.1319
783.2967,800.6227,808.68134,731.7216
788.1319,801.02563,815.5311,781.28204
799.011,801.8315,817.5458,852.6007
801.8315,801.8315,814.7253,854.61536
792.5641,794.9817,807.47253,791.3553
786.9231,791.3553,805.4579,728.9011
788.1319,794.9817,810.293,761.9414
794.57874,799.81683,808.68134,840.5128
801.4286,802.6374,810.696,857.8388
796.99634,798.20514,813.91943,802.6374
793.36993,801.8315,811.0989,736.55676
797.8022,806.26373,811.50183,760.32965
804.2491,801.02563,813.1135,835.2747
799.41394,794.9817,811.9048,855.82416
795.38464,791.75824,804.65204,805.8608
789.7436,790.9524,802.23444,734.94507
788.93774,793.7729,810.293,755.09155
793.36993,794.9817,816.337,832.8571
792.96704,795.38464,818.7546,858.24176
792.5641,796.99634,807.8755,812.71063
793.7729,801.8315,801.8315,744.61536
794.57874,802.6374,814.3223,750.2564
797.8022,801.02563,816.7399,819.9634
796.5934,803.44324,813.5165,854.21246
788.93774,798.20514,807.47253,826.8132
786.1172,793.7729,801.4286,747.4359
782.0879,792.96704,815.5311,722.4542
788.93774,797.8022,819.5604,801.02563
792.96704,799.011,809.0842,851.39197
788.5348,797.3993,808.68134,831.2454
790.14655,800.6227,812.3077,767.5824
794.57874,800.6227,815.12823,739.3773
796.1905,798.20514,815.9341,803.8461
799.011,794.9817,815.5311,858.24176
797.3993,793.7729,814.3223,834.4689
796.5934,794.57874,811.9048,765.16486
797.8022,794.57874,809.89014,723.2601
801.02563,795.78754,814.3223,776.4469
800.2198,795.38464,816.337,839.707
794.17584,792.1612,807.0696,838.0952
779.67035,792.1612,801.02563,707.9487
786.1172,788.1319,800.2198,768.7912
782.49084,796.5934,811.0989,761.53845
789.7436,794.9817,817.9487,840.5128
788.93774,794.17584,817.9487,847.76556
783.69965,795.78754,816.337,789.7436
781.685,798.60803,823.1868,738.5714
793.36993,809.0842,831.6484,786.9231
805.05493,805.8608,823.5897,851.39197
799.41394,794.9817,812.3077,846.1539
798.60803,800.6227,813.1135,801.02563
798.60803,807.47253,815.5311,739.7802
797.8022,801.4286,821.978,751.4652
801.4286,796.1905,820.3663,828.4249
800.6227,801.02563,817.1429,852.1978
790.14655,798.60803,812.71063,796.99634
787.326,794.57874,807.0696,727.28937
789.34064,799.011,814.3223,743.8095
796.5934,801.02563,818.3516,817.1429
796.5934,798.60803,810.293,809.0842
793.7729,794.9817,812.71063,732.9304
788.93774,796.99634,813.5165,727.6923
795.78754,801.02563,811.50183,813.5165
796.5934,802.23444,814.3223,845.34796
794.57874,798.60803,808.68134,857.8388
784.5055,796.5934,806.6667,819.9634
777.25275,796.99634,805.4579,742.6007
786.9231,791.3553,814.3223,798.60803
783.2967,792.1612,812.71063,729.707
782.8938,795.38464,806.6667,846.9597
783.2967,796.99634,807.0696,824.3956
779.2674,794.17584,809.4872,751.06226
777.6557,788.5348,809.89014,722.8571
786.1172,788.5348,812.3077,791.3553
788.5348,791.75824,810.696,847.3626
784.90845,794.57874,808.2784,832.8571
774.0293,794.9817,801.02563,757.1062
772.8205,796.99634,805.4579,711.978
789.34064,799.011,812.71063,773.6264
790.9524,799.011,804.2491,836.4835
780.07324,800.2198,798.60803,829.2308
776.04395,797.8022,801.8315,770
788.5348,805.05493,809.4872,767.1795
783.69965,802.23444,804.2491,719.2308
786.1172,796.1905,809.4872,841.7216
795.38464,798.20514,809.0842,848.97437
801.02563,801.02563,806.6667,785.7143
798.60803,800.6227,807.47253,726.08057
800.2198,805.4579,814.3223,771.2088
806.6667,810.696,813.91943,842.52747
798.60803,808.2784,812.71063,841.31866
790.14655,801.4286,804.65204,729.707
791.3553,803.44324,807.8755,792.5641
792.1612,802.6374,811.0989,742.6007
793.7729,802.6374,816.337,821.5751
786.9231,795.78754,812.3077,844.94507
784.10254,794.17584,806.6667,803.0403
778.86444,792.5641,804.2491,733.73627
779.2674,795.78754,804.2491,739.7802
788.93774,795.78754,803.44324,820.7692
786.1172,791.3553,801.8315,850.989
784.90845,792.96704,803.0403,805.05493
787.72894,796.1905,800.2198,736.55676
786.1172,801.02563,806.6667,733.73627
795.38464,800.6227,814.7253,811.9048
799.81683,796.99634,808.68134,856.2271
789.7436,796.5934,803.0403,815.12823
782.49084,793.36993,800.2198,753.8828
787.72894,791.75824,803.0403,742.6007
792.5641,797.3993,808.68134,810.696
794.57874,800.6227,806.6667,864.68866
797.8022,795.78754,802.6374,842.9304
797.8022,793.36993,801.02563,774.43225
799.41394,792.5641,804.2491,742.6007
804.65204,793.7729,809.0842,807.0696
820.3663,803.0403,810.293,871.53845
826.4103,800.2198,801.02563,857.4359
821.1722,794.9817,798.60803,787.72894
825.6044,801.4286,803.44324,754.68866
832.4542,801.02563,808.2784,817.1429
842.52747,801.4286,809.4872,888.46155
837.28937,800.6227,803.8461,883.22345
829.2308,797.3993,799.41394,809.0842
832.4542,797.3993,795.38464,766.77655
834.87177,797.8022,800.2198,827.2161
840.5128,796.1905,801.8315,890.87915
834.87177,796.99634,801.4286,886.4469
832.4542,794.57874,805.05493,819.9634
845.7509,795.78754,806.26373,767.5824
844.5421,799.011,810.696,812.3077
846.1539,804.65204,816.337,884.0293
844.94507,805.4579,812.71063,897.72894
833.663,793.36993,803.8461,842.52747
836.8865,791.75824,805.05493,779.67035
845.34796,795.78754,805.8608,800.2198
850.989,798.60803,809.0842,878.3883
848.1685,799.41394,807.47253,898.5348
838.0952,797.3993,803.44324,850.989
831.2454,797.8022,804.65204,780.07324
830.84247,797.3993,806.26373,778.86444
840.10986,798.60803,809.0842,859.85345
838.0952,797.3993,806.6667,887.25275
826.8132,795.78754,799.81683,836.8865
827.2161,799.011,801.4286,764.7619
827.619,796.1905,803.0403,755.4945
830.84247,792.96704,804.2491,832.0513
832.4542,799.41394,811.0989,879.19415
818.7546,796.5934,805.8608,841.31866
809.4872,792.1612,804.2491,768.3883
813.5165,790.9524,805.05493,753.0769
816.7399,790.9524,807.0696,830.4396
823.1868,795.78754,816.337,886.4469
819.15753,796.1905,811.9048,849.7802
801.02563,792.96704,804.2491,770.40295
799.81683,790.9524,807.47253,745.42126
802.6374,792.5641,803.44324,807.0696
804.65204,791.75824,803.0403,866.30035
803.0403,791.3553,803.8461,847.76556
803.8461,794.9817,802.23444,779.2674
809.0842,799.41394,805.4579,743.4066
815.12823,805.4579,810.696,804.65204
815.5311,801.4286,810.696,860.2564
809.0842,799.81683,810.293,855.0183
801.8315,799.81683,802.6374,783.69965
811.50183,803.0403,809.0842,777.6557
799.41394,801.4286,800.6227,724.0659
811.9048,807.47253,804.2491,859.0476
818.7546,804.2491,807.47253,849.3773
802.23444,801.4286,802.23444,799.81683
791.75824,792.5641,806.26373,773.6264
790.9524,792.1612,803.0403,732.52747
796.5934,794.17584,804.65204,850.989
799.41394,792.5641,803.44324,857.8388
799.011,796.99634,801.8315,808.68134
796.99634,798.60803,803.0403,747.03296
799.81683,798.20514,808.68134,761.53845
801.4286,794.57874,811.0989,829.6337
799.011,792.5641,805.05493,854.21246
794.57874,796.1905,803.44324,814.7253
794.57874,802.23444,807.0696,741.39197
795.38464,794.57874,802.6374,740.989
793.7729,791.3553,800.6227,818.7546
798.20514,798.60803,804.2491,851.39197
793.7729,793.7729,800.2198,807.47253
778.86444,786.9231,794.9817,732.9304
785.7143,793.36993,800.6227,732.1245
811.9048,797.8022,808.68134,810.696
805.8608,793.36993,805.4579,850.989
793.7729,793.7729,803.0403,817.9487
799.011,796.99634,807.47253,748.24176
798.60803,800.2198,816.7399,736.9597
801.4286,803.44324,817.1429,810.696
805.4579,799.81683,811.50183,855.0183
807.8755,801.8315,818.3516,833.663
799.41394,802.6374,811.9048,757.9121
792.1612,802.23444,802.6374,727.6923
803.8461,807.0696,813.91943,802.23444
807.47253,807.47253,813.5165,854.61536
806.6667,806.6667,806.26373,835.2747
801.02563,801.4286,802.6374,765.56775
791.75824,802.6374,802.23444,724.0659
801.02563,814.3223,812.71063,789.7436
803.0403,811.0989,817.9487,858.24176
794.9817,803.8461,808.2784,841.7216
786.9231,801.4286,805.4579,770.80585
779.67035,801.8315,806.26373,724.4689
782.0879,802.23444,802.23444,776.04395
793.36993,799.81683,805.05493,847.76556
792.5641,799.81683,809.4872,847.3626
790.14655,801.8315,801.4286,783.2967
789.34064,801.4286,802.6374,724.0659
789.34064,799.41394,812.3077,764.7619
793.36993,798.20514,809.4872,837.28937
795.78754,796.99634,806.6667,848.1685
792.1612,798.20514,800.6227,794.9817
792.1612,801.8315,807.8755,755.89746
795.38464,799.011,803.8461,828.8278
793.36993,796.99634,804.2491,844.94507
787.72894,801.8315,802.23444,729.304
793.7729,798.20514,802.6374,801.02563
791.3553,798.60803,800.2198,743.4066
790.54944,800.2198,796.1905,733.3333
792.96704,799.81683,807.8755,821.978
790.14655,798.60803,807.8755,849.7802
790.9524,794.9817,805.8608,807.0696
790.9524,793.36993,801.8315,738.97437
787.72894,792.96704,802.6374,739.7802
790.14655,798.60803,815.9341,819.15753
791.3553,796.99634,815.9341,864.2857
783.69965,790.9524,799.41394,823.9927
775.2381,786.52014,794.17584,735.34796
775.64105,794.57874,801.4286,720.0366
780.07324,802.6374,804.2491,795.78754
783.69965,799.41394,805.8608,846.55676
783.69965,800.2198,804.65204,823.1868
779.67035,799.41394,799.41394,748.24176
782.8938,793.7729,805.05493,724.0659
791.3553,796.1905,807.0696,794.9817
795.38464,802.23444,808.2784,848.5714
794.9817,802.23444,811.50183,830.4396
791.3553,803.0403,802.23444,762.74725
788.1319,800.6227,798.60803,723.663
795.38464,802.23444,809.0842,784.90845
797.8022,801.4286,813.1135,845.34796
790.9524,794.17584,807.0696,841.7216
788.1319,795.78754,803.44324,777.6557
786.9231,796.5934,805.8608,726.4835
788.5348,793.36993,804.2491,784.5055
800.2198,796.1905,807.8755,858.6447
802.6374,799.41394,812.3077,865.09155
792.96704,794.57874,810.696,806.6667
783.2967,791.75824,811.50183,743.4066
786.52014,798.60803,818.3516,786.1172
788.1319,797.8022,813.1135,850.18317
782.8938,794.57874,804.2491,853.4066
784.90845,799.41394,811.0989,806.6667
787.72894,799.41394,811.50183,742.1978
792.5641,796.1905,803.0403,757.50916
790.54944,801.4286,806.26373,830.84247
791.75824,805.4579,809.89014,858.24176
793.36993,803.0403,810.293,803.44324
785.31134,798.60803,803.0403,724.0659
796.99634,799.81683,805.8608,749.85345
803.0403,800.6227,809.0842,828.8278
796.1905,794.9817,801.02563,850.989
794.9817,794.57874,799.41394,813.1135
790.14655,796.99634,803.8461,739.3773
795.38464,798.60803,807.0696,734.94507
802.23444,796.5934,810.293,813.91943
797.8022,794.17584,807.0696,857.03296
790.9524,793.7729,801.8315,826.4103
787.326,790.54944,804.65204,752.27106
784.5055,792.5641,812.71063,738.1685
791.75824,793.7729,818.3516,811.9048
800.6227,793.36993,815.5311,859.45056
792.5641,794.57874,811.9048,834.87177
780.87915,788.5348,806.26373,758.71796
779.2674,781.685,800.6227,724.0659
778.86444,780.87915,807.0696,789.7436
790.9524,790.54944,809.0842,838.9011
787.72894,785.7143,811.50183,850.989
794.17584,796.99634,811.50183,774.43225
793.36993,802.23444,815.9341,736.9597
790.54944,797.8022,811.9048,791.3553
797.3993,796.5934,806.6667,852.1978
793.36993,796.5934,799.81683,841.7216
784.10254,793.36993,797.8022,765.16486
781.28204,794.9817,806.26373,716.0073
795.78754,794.57874,809.0842,772.4176
804.65204,795.78754,809.0842,840.9158
800.2198,801.8315,809.0842,842.9304
792.96704,799.011,802.23444,779.67035
788.1319,801.8315,798.20514,717.619
792.1612,803.44324,804.65204,758.315
801.02563,801.02563,810.696,841.31866
803.8461,800.2198,805.8608,850.18317
799.81683,799.41394,805.05493,789.7436
792.1612,799.41394,805.8608,724.87177
798.20514,800.6227,809.4872,754.68866
805.05493,797.3993,817.1429,838.49817
799.81683,796.5934,817.1429,860.65936
793.7729,799.011,812.3077,802.23444
785.31134,799.011,809.89014,732.9304
784.10254,798.60803,810.696,753.47986
794.17584,799.41394,810.293,828.4249
797.3993,794.57874,812.71063,861.06226
786.9231,793.7729,817.1429,823.1868
773.6264,797.3993,812.71063,741.39197
773.6264,797.3993,815.5311,738.1685
789.34064,799.81683,820.7692,817.5458
799.81683,805.8608,817.5458,859.0476
794.57874,802.23444,812.3077,829.6337
792.5641,794.9817,803.44324,749.45056
793.7729,797.3993,803.44324,732.52747
797.8022,802.23444,811.9048,807.0696
798.20514,799.81683,810.696,849.3773
790.14655,796.1905,803.0403,821.1722
781.685,799.41394,803.0403,750.2564
783.2967,799.41394,808.2784,725.6777
787.326,794.9817,805.8608,790.14655
783.2967,793.7729,798.60803,833.663
782.8938,795.38464,800.2198,814.7253
785.31134,798.60803,810.293,751.4652
791.3553,801.02563,809.0842,715.2015
791.75824,799.81683,801.4286,772.01465
786.9231,791.3553,800.6227,836.08057
787.72894,789.34064,801.4286,832.0513
782.8938,796.1905,803.0403,767.5824
776.4469,793.7729,805.05493,720.0366
785.7143,790.9524,809.89014,775.2381
794.17584,791.75824,813.5165,849.7802
794.57874,794.9817,812.3077,848.5714
791.75824,799.41394,812.71063,786.9231
789.34064,797.3993,807.0696,765.9707
788.5348,798.20514,808.68134,729.304
790.9524,800.2198,809.4872,836.8865
789.7436,798.60803,805.05493,843.3333
786.52014,796.99634,802.6374,783.2967
780.4762,801.02563,803.8461,717.619
784.5055,803.0403,801.4286,748.6447
791.75824,803.44324,805.4579,815.12823
790.9524,800.2198,806.6667,826.4103
790.54944,799.011,804.2491,789.34064
792.96704,798.20514,805.8608,716.4103
789.34064,798.20514,807.47253,725.6777
790.54944,798.20514,809.89014,811.9048
799.81683,796.1905,808.2784,840.5128
794.9817,800.2198,806.6667,794.9817
784.5055,800.2198,802.6374,717.2161
787.72894,796.99634,801.4286,720.84247
791.75824,801.02563,807.47253,804.65204
789.34064,805.8608,804.65204,836.4835
793.7729,799.81683,801.4286,810.293
797.3993,795.78754,807.8755,750.2564
788.93774,799.81683,810.696,728.49817
795.38464,807.0696,807.8755,799.011
812.3077,806.6667,802.6374,860.2564
813.91943,792.96704,798.60803,840.5128
801.4286,788.93774,800.2198,761.9414
801.4286,799.81683,804.65204,734.5421
811.50183,796.99634,807.47253,814.3223
815.12823,788.93774,808.68134,875.9707
812.71063,790.9524,795.38464,853.00366
805.05493,803.44324,799.41394,778.0586
809.89014,809.4872,816.7399,746.63007
822.381,803.8461,808.68134,817.9487
826.8132,799.81683,800.6227,876.3736
812.3077,790.54944,804.65204,855.0183
798.20514,792.5641,803.44324,780.07324
804.2491,799.81683,800.6227,735.34796
807.8755,799.41394,801.02563,795.38464
809.89014,799.41394,804.2491,857.4359
807.47253,790.9524,800.2198,850.989
798.60803,787.72894,792.5641,788.1319
797.3993,794.17584,792.96704,725.6777
806.26373,794.9817,797.3993,768.3883
808.2784,796.99634,799.011,840.10986
805.8608,797.8022,799.81683,848.5714
804.65204,797.3993,795.78754,801.4286
800.6227,799.41394,796.5934,742.1978
799.81683,799.011,802.23444,838.0952
803.8461,797.3993,798.20514,855.82416
796.99634,802.23444,803.44324,771.2088
803.0403,799.81683,794.9817,811.9048
794.17584,799.41394,796.99634,743.4066
794.17584,802.6374,808.2784,763.5531
803.8461,801.8315,815.12823,839.707
799.011,795.38464,801.02563,861.06226
794.17584,795.38464,796.5934,820.3663
787.72894,790.14655,797.8022,738.1685
785.31134,787.326,799.41394,737.76556
793.36993,792.1612,805.4579,822.381
796.5934,792.5641,805.8608,853.8095
799.41394,793.7729,807.8755,828.4249
801.02563,796.99634,810.293,762.3443
794.57874,801.4286,809.4872,741.39197
800.6227,802.23444,808.68134,811.50183
805.05493,794.57874,805.05493,857.03296
797.3993,796.5934,799.41394,830.84247
789.34064,799.011,796.5934,751.8681
789.7436,796.5934,798.60803,721.6484
796.99634,792.5641,801.02563,790.54944
795.78754,792.1612,796.5934,842.9304
795.38464,796.99634,798.20514,826.4103
785.7143,796.1905,801.02563,759.92676
774.43225,790.54944,799.011,718.022
784.5055,795.78754,801.8315,780.07324
795.38464,798.20514,801.8315,845.7509
786.52014,791.3553,795.78754,832.4542
778.46155,790.9524,793.36993,763.1502
784.10254,794.9817,794.9817,714.7985
788.1319,797.8022,797.3993,759.92676
791.3553,796.1905,799.41394,830.0366
794.9817,796.5934,796.5934,836.4835
793.7729,802.6374,792.5641,776.04395
790.54944,803.44324,796.1905,723.2601
791.3553,801.02563,798.20514,762.74725
796.5934,802.23444,799.41394,835.2747
797.3993,801.8315,798.60803,846.1539
791.75824,803.44324,793.36993,787.72894
788.93774,800.2198,793.36993,720.84247
790.14655,799.41394,801.8315,745.82416
800.2198,804.2491,806.6667,828.4249
801.8315,800.2198,806.26373,845.7509
797.3993,799.81683,799.81683,792.1612
790.9524,803.0403,796.1905,725.6777
795.78754,808.68134,803.0403,745.0183
797.8022,805.4579,801.02563,824.3956
794.57874,798.60803,798.60803,857.8388
796.1905,801.02563,801.8315,821.1722
792.96704,803.44324,804.65204,735.7509
799.41394,809.0842,810.293,743.00366
803.44324,809.89014,816.337,822.7839
801.8315,808.2784,816.337,851.79486
793.7729,806.26373,803.44324,817.1429
780.4762,802.6374,801.02563,741.79486
777.6557,800.2198,805.8608,729.304
785.31134,801.02563,805.4579,801.4286
788.93774,802.6374,805.8608,845.7509
784.5055,802.6374,804.65204,816.7399
781.28204,805.05493,800.6227,740.58606
787.326,803.8461,804.2491,720.84247
792.1612,801.8315,810.696,796.1905
797.3993,808.2784,811.50183,848.1685
800.6227,811.0989,805.8608,828.4249
794.57874,801.8315,800.6227,760.32965
786.52014,792.1612,808.2784,721.2454
793.36993,791.3553,813.91943,780.07324
794.57874,795.78754,811.0989,837.28937
790.9524,795.38464,807.0696,828.4249
789.7436,796.1905,807.47253,768.3883
782.0879,796.99634,803.44324,711.5751
789.34064,796.1905,804.2491,759.5238
795.38464,796.1905,808.2784,831.6484
787.326,797.3993,804.2491,829.6337
788.5348,803.0403,807.8755,779.2674
788.1319,797.3993,810.293,725.2747
777.25275,785.7143,800.2198,754.68866
787.72894,792.96704,801.02563,834.0659
789.34064,793.7729,803.0403,847.3626
779.2674,789.34064,796.99634,790.14655
773.6264,792.5641,805.05493,724.0659
775.2381,798.20514,814.3223,753.8828
780.07324,796.99634,817.5458,830.4396
774.83514,795.38464,821.1722,844.5421
768.3883,795.78754,812.3077,791.3553
772.01465,797.8022,809.4872,724.0659
771.6117,799.81683,819.5604,743.8095
772.8205,797.3993,819.15753,818.3516
773.22345,789.34064,815.12823,836.8865
772.4176,794.57874,810.696,795.38464
774.83514,799.41394,803.8461,721.2454
774.43225,794.9817,806.6667,719.6337
778.86444,791.3553,815.5311,799.81683
783.69965,790.14655,815.5311,843.3333
783.2967,793.36993,812.3077,803.0403
780.87915,797.8022,807.0696,726.8865
782.0879,796.99634,807.47253,721.6484
787.72894,796.99634,818.7546,800.6227
786.9231,798.20514,818.3516,849.3773
778.0586,790.14655,802.6374,815.5311
773.6264,788.93774,797.8022,736.1539
772.01465,791.3553,807.8755,714.3956
776.4469,788.1319,802.6374,782.0879
785.31134,795.38464,798.60803,844.5421
781.685,798.60803,800.6227,824.7985
769.59705,795.38464,798.20514,743.00366
768.3883,794.9817,798.60803,710.7692
776.4469,791.3553,802.23444,776.8498
778.0586,794.57874,807.0696,832.8571
772.8205,801.4286,804.2491,819.15753
773.6264,803.8461,799.81683,753.8828
771.6117,804.2491,804.65204,710.3663
771.6117,801.02563,817.1429,822.381
769.19415,796.5934,812.3077,813.1135
766.3736,803.44324,811.0989,762.3443
766.3736,799.41394,806.26373,749.45056
774.0293,803.44324,803.0403,694.2491
778.46155,798.60803,803.8461,734.1392
780.4762,795.78754,811.50183,809.4872
778.46155,799.81683,811.9048,823.5897
774.83514,796.99634,803.8461,765.16486
769.59705,790.54944,802.23444,703.1135
771.6117,793.36993,809.4872,740.18317
774.43225,792.1612,809.4872,817.9487
774.83514,788.5348,811.9048,837.28937
769.19415,791.3553,811.0989,786.1172
760.32965,794.57874,806.26373,716.0073
761.53845,803.0403,816.337,728.0952
769.19415,802.6374,818.7546,803.44324
778.86444,805.8608,812.3077,836.4835
774.43225,808.68134,809.89014,791.75824
770,803.44324,808.68134,715.6044
770.40295,797.3993,805.4579,719.2308
769.59705,795.38464,803.44324,794.9817
770.80585,799.011,803.8461,828.8278
759.5238,796.99634,801.4286,784.90845
752.674,794.9817,805.8608,703.5165
749.45056,796.99634,801.02563,693.8461
758.315,798.20514,799.011,776.8498
764.35895,796.1905,802.23444,817.5458
761.9414,796.99634,805.05493,784.5055
755.89746,800.6227,809.89014,712.7839
763.1502,798.60803,796.1905,764.35895
766.3736,801.02563,796.5934,799.011
752.27106,799.81683,805.05493,693.44324
769.59705,797.8022,797.3993,818.7546
766.77655,805.05493,791.3553,726.4835
770.40295,799.011,791.3553,689.41394
774.83514,794.17584,800.2198,758.315
772.01465,793.7729,803.8461,821.1722
764.35895,793.36993,798.60803,811.0989
763.5531,795.78754,795.38464,745.0183
765.9707,796.1905,799.81683,699.0842
771.2088,792.1612,801.8315,752.674
776.04395,788.93774,801.02563,829.6337
773.6264,792.1612,801.8315,832.4542
768.3883,796.99634,803.0403,761.53845
763.5531,792.5641,800.2198,702.3077
769.19415,796.99634,803.0403,747.8388
775.64105,796.1905,805.4579,828.8278
772.01465,788.5348,800.2198,836.08057
773.6264,792.1612,803.0403,778.46155
775.64105,796.5934,802.23444,716.8132
780.07324,800.2198,797.3993,751.4652
792.5641,803.44324,798.60803,838.49817
800.2198,804.65204,807.47253,858.24176
791.75824,801.8315,803.44324,803.8461
778.0586,796.1905,791.3553,722.8571
784.5055,799.011,802.6374,735.7509
789.34064,802.6374,805.8608,811.9048
791.75824,801.4286,801.4286,839.304
796.5934,798.60803,798.20514,802.6374
790.14655,795.78754,794.9817,732.1245
790.14655,799.011,802.23444,730.5128
796.5934,803.44324,799.41394,809.0842
807.0696,806.6667,798.20514,852.1978
810.293,811.0989,806.26373,823.5897
794.57874,807.0696,806.26373,741.39197
788.93774,797.3993,806.6667,728.9011
789.7436,799.011,809.0842,799.41394
788.93774,799.81683,809.4872,839.707
790.54944,797.8022,806.6667,826.0073
786.1172,799.81683,802.6374,755.09155
784.5055,799.41394,803.0403,722.8571
804.2491,802.6374,814.7253,799.81683
810.696,803.0403,811.50183,858.24176
789.34064,794.9817,800.2198,829.6337
778.0586,794.57874,796.5934,749.0476
782.8938,799.81683,801.8315,718.4249
796.5934,803.0403,813.1135,785.7143
796.99634,805.05493,810.696,842.1245
782.49084,801.02563,802.6374,822.381
775.64105,796.5934,801.02563,749.45056
782.49084,799.41394,798.60803,705.5311
788.5348,805.8608,799.41394,761.13556
787.72894,805.4579,803.8461,828.8278
786.9231,799.011,798.20514,825.2015
791.75824,796.1905,791.3553,767.98535
787.72894,795.38464,791.3553,720.84247
790.9524,797.3993,796.5934,761.53845
797.8022,802.6374,802.23444,825.6044
797.3993,800.6227,805.4579,839.304
794.57874,797.3993,801.02563,789.34064
782.8938,795.78754,790.54944,713.5897
782.8938,794.57874,788.5348,740.58606
790.9524,792.96704,797.3993,830.0366
794.9817,793.7729,803.8461,850.989
796.1905,797.8022,802.6374,801.4286
792.1612,795.38464,794.9817,726.4835
788.5348,794.17584,792.96704,747.4359
791.75824,792.1612,800.6227,839.304
796.1905,796.1905,803.44324,862.674
796.99634,800.6227,795.38464,807.8755
791.3553,798.60803,796.99634,737.76556
794.9817,793.7729,805.4579,749.0476
803.44324,796.5934,812.71063,824.3956
795.78754,801.4286,806.26373,854.61536
790.14655,796.1905,799.41394,820.7692
799.011,798.20514,801.8315,747.03296
798.20514,798.60803,799.011,733.73627
799.81683,800.2198,797.8022,801.4286
803.44324,801.8315,795.38464,841.7216
799.41394,799.81683,793.7729,824.7985
794.17584,795.78754,794.17584,749.45056
796.5934,797.3993,796.5934,719.6337
803.0403,801.8315,798.20514,790.9524
802.23444,803.44324,800.2198,845.7509
797.8022,802.6374,803.8461,826.4103
792.5641,801.4286,802.6374,759.92676
798.20514,801.8315,800.6227,733.3333
804.2491,806.26373,808.2784,804.2491
802.23444,805.8608,815.5311,868.71796
802.6374,801.02563,813.5165,846.9597
802.6374,803.44324,808.2784,781.28204
799.81683,804.65204,805.4579,743.8095
802.6374,807.47253,809.4872,786.1172
808.2784,809.4872,814.7253,851.79486
809.0842,802.23444,812.3077,854.21246
804.65204,799.81683,802.6374,792.1612
800.2198,803.44324,801.02563,733.73627
799.011,801.8315,802.6374,768.3883
798.60803,796.5934,803.8461,842.52747
798.60803,797.3993,807.8755,855.42126
803.44324,802.6374,805.05493,794.9817
794.17584,800.2198,799.41394,720.84247
792.96704,802.6374,805.8608,757.9121
806.26373,806.6667,813.91943,842.1245
791.75824,799.81683,802.6374,845.34796
782.49084,796.99634,794.17584,791.3553
787.326,799.81683,803.0403,735.34796
792.96704,802.6374,811.50183,753.8828
805.05493,801.8315,811.9048,831.2454
813.91943,802.23444,810.293,867.9121
811.0989,802.23444,802.23444,823.5897
809.0842,799.011,800.2198,747.4359
