eeg_1,eeg_2,eeg_3,eeg_4
816.337,806.6667,806.26373,799.81683
810.293,806.6667,804.65204,802.23444
797.8022,808.2784,799.81683,814.3223
803.44324,809.89014,798.20514,816.7399
814.7253,807.0696,796.5934,811.9048
805.8608,810.293,798.20514,804.65204
795.38464,812.3077,801.4286,797.3993
801.4286,807.0696,803.0403,803.44324
797.8022,803.0403,803.0403,809.0842
797.8022,805.05493,801.02563,796.5934
806.26373,807.0696,801.4286,792.96704
811.0989,808.2784,807.8755,799.41394
808.2784,809.0842,809.89014,811.9048
801.02563,808.68134,806.26373,811.0989
809.0842,805.8608,802.6374,807.0696
808.2784,800.2198,797.8022,802.6374
804.2491,801.8315,796.5934,797.3993
803.0403,807.0696,800.2198,808.2784
802.6374,803.44324,803.44324,803.8461
809.4872,798.60803,804.2491,796.5934
813.1135,803.0403,803.8461,797.3993
811.9048,808.2784,802.23444,801.8315
813.91943,801.4286,801.8315,815.12823
818.7546,799.41394,803.44324,819.5604
821.978,800.6227,802.23444,815.9341
814.7253,805.8608,803.8461,809.0842
805.4579,808.2784,803.44324,804.65204
812.71063,803.0403,801.4286,814.3223
814.7253,806.6667,801.02563,816.7399
810.696,806.26373,805.05493,795.78754
811.0989,805.05493,804.65204,795.38464
810.293,806.6667,802.23444,802.6374
818.7546,806.6667,804.65204,804.65204
806.26373,803.0403,806.6667,798.60803
796.1905,801.02563,801.02563,790.9524
808.2784,807.8755,802.23444,805.05493
806.26373,799.81683,801.4286,787.72894
811.50183,804.65204,807.8755,795.78754
813.5165,808.2784,809.89014,808.68134
819.5604,809.0842,805.8608,807.47253
816.337,807.8755,803.8461,795.38464
818.3516,807.47253,807.0696,792.96704
810.293,804.65204,808.2784,801.4286
791.75824,796.99634,808.68134,803.8461
796.1905,802.23444,809.4872,799.41394
807.0696,808.68134,805.4579,795.78754
810.293,806.6667,799.81683,789.7436
805.05493,809.89014,801.4286,794.17584
808.2784,811.50183,806.26373,804.65204
809.89014,808.68134,806.26373,813.5165
805.05493,804.2491,807.8755,802.6374
813.1135,804.65204,807.47253,790.14655
809.4872,808.2784,807.8755,791.75824
797.3993,806.26373,810.696,796.5934
801.4286,802.6374,809.4872,799.41394
807.47253,802.6374,809.4872,799.011
801.4286,804.65204,808.2784,788.1319
794.57874,804.2491,805.4579,780.87915
801.02563,798.20514,807.47253,788.93774
808.2784,807.0696,807.8755,795.78754
806.6667,809.89014,805.4579,796.99634
804.65204,805.4579,802.23444,784.10254
795.38464,805.8608,802.23444,774.0293
795.38464,805.8608,804.2491,787.326
807.8755,812.3077,803.0403,796.1905
803.44324,811.0989,802.6374,786.52014
799.81683,801.02563,802.6374,785.7143
806.26373,806.6667,803.8461,790.9524
801.4286,808.2784,802.23444,789.34064
802.23444,802.23444,799.41394,796.5934
808.68134,804.2491,797.8022,797.3993
803.0403,808.2784,803.44324,799.011
800.6227,808.2784,804.65204,799.011
804.2491,808.68134,803.0403,803.8461
798.20514,802.23444,800.2198,797.3993
802.23444,813.91943,804.2491,799.011
804.65204,810.696,805.4579,797.3993
816.7399,815.5311,807.0696,795.38464
809.0842,810.696,803.44324,792.96704
808.2784,801.8315,804.2491,804.2491
820.3663,809.0842,806.6667,813.5165
817.9487,813.1135,810.293,809.89014
816.7399,812.71063,814.7253,800.2198
819.5604,814.3223,810.696,801.8315
820.3663,811.9048,811.50183,809.4872
817.9487,810.696,814.7253,812.3077
813.1135,813.91943,813.1135,809.89014
812.3077,810.293,810.293,805.8608
809.4872,802.6374,808.2784,801.4286
807.47253,802.23444,809.4872,811.50183
807.8755,803.44324,815.12823,813.1135
810.293,805.8608,815.9341,807.8755
813.5165,803.8461,812.3077,804.2491
818.3516,799.41394,809.4872,805.4579
814.3223,802.6374,810.293,813.5165
808.2784,803.0403,809.0842,815.12823
806.26373,803.0403,806.6667,803.0403
812.3077,801.4286,797.8022,802.23444
809.0842,801.4286,803.44324,797.3993
811.50183,807.47253,803.0403,799.41394
809.89014,808.68134,806.6667,801.8315
809.0842,805.4579,802.23444,803.44324
813.5165,801.8315,802.6374,803.44324
814.7253,801.02563,804.65204,797.8022
815.9341,802.6374,807.8755,799.011
816.7399,804.65204,806.6667,805.8608
811.0989,803.8461,805.05493,805.05493
802.6374,802.23444,801.8315,795.38464
800.6227,803.44324,802.6374,798.20514
807.8755,802.23444,804.65204,810.696
813.91943,804.65204,807.0696,819.15753
819.9634,806.6667,810.696,816.337
816.337,805.4579,813.1135,804.65204
807.0696,802.23444,812.3077,799.41394
799.41394,799.81683,807.0696,805.4579
798.20514,801.4286,803.44324,812.3077
805.4579,799.81683,801.4286,807.47253
801.8315,804.2491,801.8315,802.6374
798.60803,803.0403,807.0696,805.4579
808.68134,797.8022,813.91943,806.6667
807.8755,800.2198,808.2784,812.3077
801.02563,799.41394,807.0696,807.0696
805.4579,798.20514,807.8755,801.4286
808.2784,799.011,801.8315,802.23444
807.8755,798.20514,800.2198,801.02563
803.8461,802.6374,801.8315,807.8755
804.2491,804.2491,805.05493,811.9048
809.0842,803.0403,808.2784,810.696
802.6374,803.44324,809.89014,806.26373
792.5641,802.23444,807.0696,802.23444
790.54944,801.8315,808.68134,807.8755
795.38464,805.8608,809.0842,805.8608
796.5934,805.4579,801.4286,783.2967
795.78754,794.17584,801.8315,774.0293
790.14655,795.38464,804.65204,780.07324
781.685,797.3993,809.4872,790.14655
790.9524,797.8022,811.9048,790.9524
797.8022,802.6374,805.8608,789.34064
789.7436,795.78754,801.8315,785.31134
780.87915,789.34064,800.2198,779.2674
789.7436,796.5934,800.6227,788.5348
804.2491,804.2491,800.6227,802.23444
787.326,800.6227,805.4579,784.10254
796.5934,802.23444,800.6227,792.96704
782.0879,805.4579,805.4579,794.9817
784.10254,809.0842,804.2491,810.696
782.0879,805.05493,806.26373,794.57874
776.8498,803.8461,803.0403,784.10254
794.57874,806.6667,803.8461,794.9817
792.1612,812.71063,807.8755,789.7436
780.87915,812.71063,804.2491,779.67035
782.0879,807.0696,803.44324,788.1319
781.685,806.6667,805.4579,786.1172
780.07324,805.4579,798.20514,776.8498
785.7143,811.50183,795.78754,782.0879
785.31134,813.1135,794.17584,767.5824
789.34064,813.5165,792.96704,771.6117
792.5641,809.89014,794.17584,791.75824
797.8022,807.47253,792.5641,788.93774
804.2491,808.2784,796.5934,782.8938
808.2784,805.8608,799.41394,789.34064
800.6227,809.89014,794.9817,794.57874
787.326,812.71063,791.3553,793.7729
799.81683,808.2784,794.17584,792.96704
809.0842,805.8608,795.78754,788.93774
807.0696,805.05493,801.02563,790.9524
803.8461,803.44324,800.6227,792.5641
803.8461,803.0403,795.78754,788.1319
801.02563,806.26373,799.81683,790.9524
798.60803,805.4579,802.6374,795.78754
794.17584,811.0989,802.6374,780.07324
794.17584,802.23444,801.8315,787.326
801.4286,808.68134,807.0696,790.9524
801.8315,807.0696,802.6374,799.41394
811.50183,803.0403,806.26373,802.6374
797.8022,803.44324,803.8461,800.6227
809.0842,801.02563,805.4579,804.65204
798.60803,801.8315,801.4286,795.38464
796.99634,798.60803,799.81683,788.5348
800.2198,795.38464,800.2198,782.0879
801.8315,798.60803,797.3993,779.2674
801.02563,801.8315,798.20514,794.17584
796.5934,802.6374,801.4286,795.78754
806.6667,796.99634,803.44324,794.9817
815.9341,795.78754,803.8461,801.4286
800.6227,798.60803,800.6227,790.14655
796.5934,799.81683,799.41394,800.6227
802.23444,799.81683,803.44324,813.5165
800.6227,796.99634,806.26373,799.81683
803.8461,798.60803,807.8755,790.9524
805.4579,799.011,804.2491,786.1172
801.02563,799.81683,805.8608,793.7729
808.2784,806.6667,808.2784,806.26373
804.65204,807.0696,804.65204,803.44324
805.8608,806.26373,804.2491,806.26373
817.5458,809.0842,806.26373,800.6227
805.05493,805.4579,807.47253,797.3993
799.81683,804.65204,805.05493,802.23444
804.65204,810.293,803.8461,809.89014
811.50183,811.50183,802.6374,809.4872
809.4872,806.26373,801.4286,802.6374
806.26373,806.26373,805.4579,810.696
805.8608,810.696,805.8608,805.05493
805.05493,812.71063,808.2784,798.20514
809.89014,811.0989,809.89014,799.41394
811.50183,811.9048,801.8315,793.36993
817.1429,813.91943,799.41394,804.65204
825.2015,814.7253,803.0403,813.91943
820.3663,812.3077,804.2491,810.696
816.337,815.5311,808.2784,816.7399
807.47253,815.9341,807.0696,800.2198
790.54944,807.47253,801.02563,780.4762
794.9817,809.89014,809.0842,797.8022
809.89014,816.337,814.7253,807.8755
800.2198,813.91943,806.6667,792.5641
793.7729,807.47253,800.2198,785.7143
800.2198,807.0696,805.05493,796.1905
803.0403,806.26373,807.47253,805.05493
796.5934,809.4872,803.8461,802.23444
801.8315,806.6667,801.02563,799.41394
809.4872,804.2491,800.2198,787.72894
803.0403,806.26373,802.6374,784.5055
792.5641,799.41394,808.2784,789.7436
779.2674,801.02563,807.8755,786.1172
790.14655,807.47253,806.6667,781.685
793.7729,806.6667,808.2784,782.0879
792.96704,805.4579,810.293,789.34064
800.2198,812.3077,811.50183,797.8022
797.8022,815.12823,809.0842,809.4872
809.89014,815.5311,808.2784,806.26373
818.7546,817.5458,811.0989,801.02563
816.7399,814.7253,809.0842,797.8022
807.8755,813.5165,805.4579,804.65204
801.4286,819.15753,807.0696,807.0696
809.89014,816.7399,807.8755,805.05493
801.02563,814.7253,803.8461,803.0403
805.8608,809.0842,801.4286,800.2198
811.50183,802.6374,800.6227,801.4286
802.23444,808.2784,803.0403,813.5165
794.9817,812.3077,806.26373,812.71063
788.93774,808.2784,803.0403,782.8938
801.8315,805.8608,798.20514,784.90845
806.6667,811.50183,796.99634,800.2198
822.381,805.4579,807.0696,813.91943
809.0842,805.8608,801.4286,807.0696
787.326,809.0842,802.23444,780.4762
810.696,815.12823,803.8461,801.4286
781.28204,800.6227,801.02563,779.67035
790.54944,804.65204,802.6374,798.20514
804.65204,805.05493,807.8755,805.8608
809.89014,802.6374,798.20514,796.5934
804.2491,805.8608,792.5641,776.04395
797.3993,812.3077,797.3993,765.16486
794.57874,813.1135,803.44324,782.8938
802.6374,814.7253,807.47253,801.8315
801.8315,815.9341,808.2784,802.6374
800.2198,815.9341,808.2784,794.9817
805.4579,815.5311,810.696,798.60803
795.78754,816.337,809.4872,795.78754
800.2198,816.7399,810.696,796.99634
811.50183,809.0842,810.696,803.8461
809.4872,802.23444,809.89014,793.36993
804.2491,804.65204,807.47253,793.36993
807.47253,808.2784,807.8755,806.26373
807.47253,811.50183,811.50183,808.2784
806.26373,811.0989,809.89014,800.6227
819.9634,812.71063,810.293,813.5165
817.1429,809.0842,808.68134,807.0696
815.9341,810.696,810.293,806.6667
806.6667,813.91943,806.6667,796.99634
795.78754,816.337,807.8755,790.14655
809.0842,815.9341,807.8755,786.9231
809.4872,813.5165,803.8461,786.1172
797.8022,804.65204,799.41394,800.2198
802.6374,806.26373,799.81683,819.9634
800.6227,803.8461,804.65204,802.23444
797.3993,799.41394,807.0696,786.1172
804.2491,801.4286,805.05493,793.7729
806.26373,802.23444,808.2784,802.6374
812.71063,805.05493,806.26373,810.696
810.293,806.26373,804.2491,806.6667
810.293,809.4872,808.2784,802.23444
805.05493,811.0989,805.4579,793.7729
792.1612,804.65204,807.0696,795.78754
796.5934,805.05493,804.2491,800.6227
799.41394,804.2491,797.8022,799.81683
805.4579,804.2491,795.38464,798.60803
821.978,806.26373,799.41394,802.23444
806.6667,798.60803,803.8461,801.02563
788.5348,798.60803,805.05493,803.8461
792.96704,805.8608,807.0696,800.6227
800.6227,805.8608,802.6374,788.93774
805.8608,809.0842,800.2198,793.36993
811.9048,810.293,805.4579,796.5934
813.91943,804.65204,805.4579,803.0403
807.0696,798.60803,801.4286,806.26373
792.1612,795.38464,797.3993,799.011
792.5641,798.20514,805.8608,800.2198
801.4286,804.65204,813.5165,811.50183
792.1612,808.2784,812.3077,820.7692
784.5055,805.4579,809.89014,817.5458
779.2674,806.26373,808.2784,797.3993
795.78754,798.60803,803.0403,794.17584
805.4579,796.1905,797.8022,804.65204
797.3993,800.2198,799.41394,816.7399
798.20514,803.0403,802.23444,808.68134
799.41394,799.41394,804.2491,790.9524
806.6667,799.011,804.65204,797.8022
802.23444,802.6374,807.8755,799.41394
802.23444,797.8022,806.26373,803.44324
805.4579,798.20514,806.26373,801.4286
811.50183,805.05493,806.6667,799.81683
803.8461,799.011,803.8461,781.685
803.44324,801.4286,806.6667,774.43225
807.8755,810.696,814.7253,794.9817
812.3077,805.4579,815.9341,796.5934
811.9048,804.2491,811.50183,799.81683
805.8608,805.05493,811.9048,788.93774
811.50183,800.6227,803.44324,805.4579
811.50183,801.02563,806.6667,814.3223
810.696,809.4872,810.293,810.293
811.0989,807.8755,806.6667,804.2491
812.3077,805.05493,802.23444,795.78754
809.4872,808.68134,807.0696,795.78754
808.68134,797.8022,801.8315,801.8315
802.6374,795.38464,803.0403,812.71063
815.12823,799.41394,804.65204,815.5311
820.3663,802.23444,805.4579,810.696
810.696,803.44324,802.6374,803.0403
806.6667,807.0696,804.2491,809.4872
815.5311,809.0842,803.44324,821.5751
825.2015,805.05493,804.65204,817.9487
813.91943,802.6374,803.8461,805.4579
814.7253,799.011,801.4286,807.0696
819.9634,795.78754,803.44324,811.9048
813.5165,800.6227,803.0403,808.68134
816.7399,802.6374,803.8461,808.68134
813.91943,804.65204,805.8608,809.4872
811.50183,804.2491,804.2491,807.8755
809.0842,798.20514,802.23444,796.5934
819.15753,808.2784,805.05493,805.8608
828.022,811.50183,805.05493,811.9048
813.91943,804.2491,799.011,805.05493
806.26373,801.02563,798.60803,796.1905
807.0696,798.20514,802.23444,787.326
803.0403,801.02563,802.6374,802.23444
807.8755,805.05493,801.4286,810.696
812.71063,803.44324,804.2491,801.4286
808.68134,809.0842,808.2784,801.02563
809.89014,799.41394,805.8608,799.011
804.65204,803.0403,801.8315,799.81683
807.47253,809.89014,805.05493,802.6374
812.3077,807.0696,802.6374,800.6227
811.0989,806.26373,801.02563,799.81683
805.4579,805.05493,802.23444,802.23444
807.8755,806.6667,804.65204,799.011
813.91943,813.1135,806.6667,809.89014
817.5458,811.9048,804.65204,819.5604
807.8755,808.2784,803.44324,804.65204
817.1429,808.2784,809.4872,808.2784
820.7692,805.05493,811.50183,811.9048
809.89014,804.2491,809.4872,807.0696
808.68134,807.8755,809.0842,808.68134
815.5311,809.0842,808.2784,809.4872
819.5604,800.2198,807.0696,806.6667
812.71063,800.2198,807.8755,814.7253
812.71063,803.8461,807.0696,829.6337
815.5311,800.6227,806.6667,823.5897
814.3223,802.23444,809.0842,803.44324
816.7399,803.0403,801.4286,805.4579
817.5458,806.26373,799.41394,810.696
823.1868,807.0696,806.26373,819.9634
818.3516,800.2198,803.44324,817.1429
805.05493,796.5934,801.02563,803.8461
800.6227,805.05493,802.23444,796.5934
796.99634,806.6667,799.011,799.011
797.8022,806.26373,804.2491,806.26373
798.60803,800.6227,811.0989,807.47253
801.4286,791.3553,804.65204,815.9341
805.05493,798.20514,801.02563,809.0842
794.17584,804.2491,807.0696,796.1905
792.1612,801.4286,807.47253,805.05493
799.011,799.41394,801.8315,807.0696
800.2198,799.81683,800.6227,802.23444
794.9817,801.4286,802.23444,801.02563
801.02563,799.81683,803.8461,790.9524
804.65204,798.60803,801.8315,786.52014
796.99634,797.8022,799.81683,804.65204
804.2491,802.6374,801.02563,806.6667
817.1429,802.23444,801.8315,800.6227
816.337,799.011,798.20514,796.99634
817.1429,799.81683,798.20514,809.89014
822.381,800.6227,796.5934,819.5604
823.1868,803.8461,798.60803,812.71063
829.6337,805.8608,804.2491,815.12823
823.9927,805.4579,800.6227,813.5165
815.12823,806.26373,802.6374,820.3663
814.7253,805.05493,802.6374,830.4396
816.337,805.05493,800.6227,815.9341
815.5311,811.50183,804.65204,805.05493
808.2784,806.6667,802.6374,806.26373
812.3077,802.6374,798.20514,805.05493
817.5458,809.4872,800.6227,811.9048
815.9341,809.4872,807.8755,815.9341
815.5311,803.44324,805.4579,813.1135
812.3077,800.6227,805.8608,810.696
807.8755,801.4286,809.4872,809.4872
799.81683,803.0403,806.6667,809.89014
802.6374,806.6667,801.8315,819.9634
808.2784,805.8608,801.02563,813.1135
806.26373,805.05493,801.4286,796.1905
811.50183,803.0403,801.02563,802.23444
816.7399,805.4579,799.81683,804.65204
809.89014,809.0842,804.65204,801.4286
794.17584,806.6667,805.8608,802.6374
794.9817,804.2491,799.41394,802.23444
803.0403,801.02563,799.41394,800.2198
796.99634,798.20514,802.6374,805.05493
803.8461,801.8315,800.6227,813.91943
796.5934,800.2198,801.4286,813.91943
803.0403,798.20514,803.44324,803.44324
801.02563,799.011,804.2491,802.23444
801.4286,805.8608,800.6227,808.2784
800.2198,804.65204,801.02563,795.38464
808.68134,803.0403,802.6374,791.75824
823.5897,804.65204,800.6227,806.6667
813.91943,804.2491,797.8022,806.26373
796.5934,801.4286,799.011,793.7729
804.2491,803.44324,799.011,795.38464
804.65204,804.2491,795.78754,793.36993
799.011,801.4286,799.41394,786.1172
797.3993,800.2198,799.81683,782.8938
797.8022,802.6374,799.81683,792.1612
796.99634,796.99634,802.6374,799.011
794.9817,796.1905,804.2491,796.99634
800.6227,805.05493,802.6374,796.1905
799.41394,807.47253,799.41394,797.3993
801.8315,811.0989,803.44324,806.6667
802.23444,802.23444,804.2491,799.81683
806.26373,794.57874,795.78754,794.9817
811.50183,805.05493,798.60803,801.8315
807.0696,809.4872,804.2491,801.8315
808.2784,804.2491,808.2784,804.65204
809.4872,805.4579,809.0842,808.2784
807.47253,808.68134,802.23444,801.4286
813.91943,800.6227,805.8608,801.4286
817.9487,805.8608,807.8755,806.26373
814.3223,813.5165,805.4579,809.4872
818.3516,813.91943,806.6667,817.1429
815.5311,811.0989,809.0842,819.15753
804.65204,804.65204,808.2784,798.60803
799.011,803.44324,803.44324,792.5641
804.2491,803.8461,801.8315,807.47253
811.50183,799.41394,806.6667,814.3223
809.0842,798.60803,807.0696,805.4579
814.7253,799.41394,803.0403,803.44324
819.15753,799.81683,801.02563,801.8315
814.3223,803.44324,800.6227,789.7436
810.293,805.8608,799.81683,795.78754
798.60803,807.47253,799.81683,793.36993
803.8461,807.8755,800.2198,802.6374
803.0403,813.5165,801.8315,792.5641
803.44324,807.47253,798.20514,798.20514
801.4286,800.6227,797.8022,802.6374
799.81683,798.60803,799.81683,801.4286
799.81683,794.9817,797.8022,801.4286
805.05493,796.1905,798.60803,798.60803
794.57874,797.3993,799.81683,796.1905
789.34064,801.8315,799.81683,803.44324
801.4286,807.47253,799.81683,790.9524
801.8315,807.8755,800.6227,790.54944
801.02563,807.0696,801.02563,803.44324
805.4579,805.05493,804.65204,801.4286
805.05493,802.6374,807.47253,801.02563
803.44324,803.8461,798.20514,790.9524
819.5604,803.8461,803.0403,802.23444
803.8461,804.65204,807.8755,806.26373
810.696,803.44324,805.05493,793.7729
814.3223,798.60803,803.8461,803.8461
808.68134,805.05493,799.41394,796.5934
809.4872,802.23444,799.011,806.26373
806.26373,803.0403,799.41394,793.7729
804.2491,805.8608,798.60803,794.57874
807.47253,806.26373,801.8315,804.65204
807.47253,805.4579,800.6227,806.6667
786.9231,798.60803,793.36993,779.67035
787.326,797.3993,795.78754,786.9231
796.5934,802.6374,795.38464,792.96704
809.89014,804.2491,798.20514,801.8315
791.75824,802.6374,799.41394,784.5055
794.17584,803.8461,797.8022,788.93774
796.1905,802.23444,798.60803,793.7729
792.5641,801.8315,799.81683,777.6557
782.8938,795.38464,796.5934,783.69965
788.1319,796.1905,799.41394,794.57874
794.57874,801.4286,799.41394,788.5348
790.54944,799.011,790.54944,776.8498
786.9231,802.6374,794.17584,770.80585
794.17584,804.65204,797.3993,781.685
794.57874,803.44324,794.17584,794.57874
785.7143,797.8022,795.78754,795.38464
784.90845,791.75824,800.6227,791.3553
783.2967,796.1905,798.60803,780.07324
779.2674,799.011,793.7729,774.83514
778.0586,804.65204,791.3553,784.5055
787.326,804.65204,792.96704,787.326
800.6227,802.6374,790.9524,788.5348
794.17584,804.65204,794.9817,783.2967
774.43225,801.8315,801.8315,770
776.4469,803.0403,797.3993,775.64105
782.0879,803.8461,798.20514,788.5348
783.69965,806.6667,804.2491,792.5641
793.36993,808.2784,799.81683,786.9231
795.38464,810.696,800.2198,773.22345
796.5934,803.44324,802.6374,781.685
796.5934,798.20514,801.8315,790.14655
792.96704,806.26373,803.0403,775.64105
788.1319,809.89014,804.65204,765.9707
792.5641,805.4579,801.8315,777.6557
795.78754,808.68134,801.4286,789.34064
791.3553,810.293,803.8461,788.93774
791.3553,805.05493,804.65204,788.5348
786.52014,800.6227,805.4579,779.67035
784.5055,800.6227,801.02563,780.87915
793.36993,796.5934,801.02563,801.4286
786.1172,792.1612,805.4579,798.20514
784.10254,799.011,802.6374,788.5348
786.9231,797.8022,799.011,787.326
793.36993,801.4286,800.6227,793.36993
803.0403,812.71063,815.12823,815.9341
818.7546,814.3223,809.0842,809.4872
797.8022,809.0842,807.47253,811.50183
811.9048,809.4872,797.8022,802.23444
798.20514,807.0696,797.8022,795.38464
798.20514,803.44324,795.78754,787.326
807.8755,804.2491,801.8315,798.20514
816.337,815.9341,809.4872,809.0842
811.9048,808.2784,805.4579,797.8022
799.011,802.6374,803.8461,787.326
794.17584,805.4579,809.89014,792.5641
801.8315,806.26373,810.696,807.8755
812.3077,809.4872,806.26373,811.50183
805.8608,803.44324,801.02563,799.41394
791.3553,799.011,801.02563,784.10254
792.5641,799.011,803.44324,784.10254
796.1905,804.2491,803.44324,800.2198
800.2198,808.2784,810.293,808.2784
799.81683,809.4872,814.7253,801.4286
802.6374,814.3223,805.8608,790.14655
807.0696,815.12823,800.2198,791.75824
807.8755,809.4872,802.6374,802.23444
805.05493,808.2784,808.68134,805.8608
801.02563,806.26373,807.8755,802.6374
788.5348,803.8461,803.0403,784.5055
782.49084,805.05493,804.2491,788.1319
794.17584,803.44324,808.2784,805.8608
792.1612,805.05493,806.6667,799.81683
786.52014,805.4579,802.6374,787.72894
778.46155,800.6227,801.4286,770.40295
783.69965,802.6374,800.6227,768.3883
800.2198,805.8608,800.6227,783.69965
796.1905,803.44324,804.65204,789.34064
794.57874,803.0403,807.0696,797.3993
796.99634,801.4286,805.4579,794.57874
797.3993,802.23444,805.8608,791.3553
795.38464,802.6374,806.6667,799.011
791.3553,800.6227,799.81683,797.3993
789.34064,801.02563,799.41394,795.78754
797.8022,801.02563,805.8608,794.57874
802.23444,801.4286,807.8755,790.9524
799.011,797.8022,806.6667,794.9817
803.8461,796.1905,801.4286,803.8461
803.0403,800.6227,800.2198,800.2198
784.5055,794.17584,802.6374,791.3553
783.2967,792.1612,808.2784,792.5641
801.02563,802.6374,803.8461,803.0403
792.96704,799.011,804.65204,804.65204
781.28204,790.14655,805.4579,791.3553
788.5348,794.57874,801.4286,786.9231
797.3993,802.6374,807.0696,792.1612
791.75824,800.2198,802.6374,790.9524
789.34064,798.20514,797.3993,790.54944
794.9817,798.60803,795.78754,786.9231
795.38464,798.20514,798.60803,782.0879
803.8461,799.81683,801.8315,777.6557
798.60803,801.02563,804.2491,778.0586
789.7436,801.02563,807.0696,782.8938
792.5641,804.2491,804.65204,793.36993
787.326,799.81683,802.23444,790.54944
794.57874,799.011,796.1905,772.4176
798.20514,804.65204,795.38464,788.1319
799.41394,807.47253,800.2198,804.65204
803.0403,809.89014,803.0403,799.41394
802.23444,807.47253,809.0842,785.31134
815.9341,816.337,812.71063,790.9524
803.0403,817.9487,801.02563,793.7729
787.326,803.0403,798.20514,788.5348
793.7729,801.8315,801.8315,791.75824
796.5934,810.696,800.2198,791.75824
802.6374,812.3077,801.4286,793.36993
811.0989,807.0696,806.26373,792.96704
813.1135,803.0403,804.65204,796.99634
800.2198,805.8608,804.65204,801.02563
794.17584,801.8315,807.47253,796.99634
800.6227,801.02563,806.26373,794.57874
805.05493,806.6667,802.23444,782.0879
809.0842,803.8461,798.60803,788.93774
817.1429,799.81683,807.0696,806.26373
808.68134,801.8315,809.0842,799.41394
790.14655,797.8022,801.02563,782.8938
789.7436,794.17584,797.8022,781.685
796.1905,799.011,805.8608,801.4286
790.54944,806.6667,808.2784,807.8755
800.6227,796.1905,808.2784,806.26373
809.0842,794.57874,809.0842,799.81683
803.44324,796.99634,806.6667,805.8608
793.36993,793.7729,804.65204,811.50183
792.5641,802.6374,801.4286,801.8315
800.6227,798.20514,800.2198,798.20514
798.60803,790.9524,796.5934,792.5641
790.9524,800.2198,794.9817,786.9231
798.20514,799.81683,803.8461,807.0696
796.99634,805.05493,795.78754,801.4286
788.93774,802.6374,801.8315,798.60803
800.2198,802.23444,794.17584,799.41394
799.011,786.52014,800.2198,783.69965
799.81683,788.93774,805.8608,782.49084
812.71063,794.9817,807.0696,805.8608
811.0989,801.02563,810.293,810.293
811.0989,804.2491,807.47253,810.293
809.0842,794.9817,804.65204,817.5458
792.5641,796.5934,805.8608,801.02563
785.7143,798.20514,805.4579,798.20514
782.8938,784.10254,806.26373,805.05493
787.72894,788.93774,804.65204,794.9817
801.4286,806.6667,805.4579,792.5641
800.2198,803.44324,803.44324,790.9524
807.0696,803.44324,806.26373,804.65204
808.2784,803.0403,811.50183,801.4286
788.93774,802.6374,805.05493,793.7729
786.9231,806.26373,795.38464,792.96704
790.54944,805.05493,796.99634,786.1172
788.1319,806.26373,806.6667,795.38464
794.9817,795.38464,810.293,802.6374
798.60803,796.5934,807.8755,796.1905
792.1612,796.99634,804.2491,792.5641
798.20514,797.3993,808.2784,792.1612
806.26373,796.5934,805.8608,803.8461
814.7253,796.5934,807.47253,811.9048
806.26373,803.0403,811.50183,807.8755
808.68134,810.696,812.3077,802.6374
810.696,808.68134,809.4872,809.4872
815.9341,800.6227,810.293,817.5458
806.6667,798.20514,811.0989,804.65204
798.60803,802.6374,807.8755,792.96704
809.0842,799.41394,807.0696,801.4286
805.8608,799.011,811.50183,799.81683
802.6374,803.0403,809.0842,798.20514
797.3993,799.81683,807.47253,800.2198
788.1319,800.6227,806.6667,796.1905
798.20514,799.41394,807.0696,792.5641
796.5934,802.6374,805.05493,790.54944
785.31134,801.8315,808.68134,793.36993
791.3553,797.3993,805.8608,803.0403
792.5641,801.8315,796.99634,803.8461
794.9817,798.20514,802.6374,796.99634
801.4286,797.8022,802.6374,787.326
800.6227,795.38464,803.0403,792.96704
793.7729,790.9524,808.2784,801.8315
797.3993,803.0403,803.44324,810.293
800.6227,812.71063,800.2198,800.2198
791.75824,801.4286,803.8461,788.1319
801.8315,799.81683,802.23444,799.41394
815.9341,808.68134,802.6374,817.1429
809.0842,814.3223,805.05493,800.6227
821.1722,814.3223,807.0696,820.3663
800.2198,821.5751,809.0842,800.6227
795.78754,813.91943,805.4579,790.54944
803.44324,815.12823,808.2784,808.68134
803.8461,809.4872,809.0842,819.5604
808.2784,810.293,810.696,822.381
815.9341,807.0696,811.9048,812.3077
808.68134,803.8461,811.0989,794.57874
803.8461,803.0403,809.4872,791.75824
799.011,804.2491,803.8461,796.5934
803.0403,804.2491,797.3993,798.20514
810.696,803.8461,801.02563,804.2491
801.4286,797.8022,805.8608,805.8608
802.23444,796.99634,805.05493,809.0842
794.57874,801.8315,808.2784,805.4579
796.5934,799.011,802.23444,801.4286
808.2784,799.81683,800.2198,808.2784
810.293,797.3993,803.8461,799.011
812.3077,795.38464,801.8315,795.78754
804.65204,796.1905,803.8461,791.75824
794.17584,796.99634,806.26373,782.49084
797.3993,803.0403,807.0696,788.93774
801.4286,808.2784,804.2491,788.93774
801.02563,807.0696,803.44324,793.36993
805.05493,805.8608,807.0696,813.91943
799.41394,802.23444,808.68134,808.2784
792.1612,808.68134,810.293,791.3553
793.7729,805.8608,802.6374,783.69965
802.23444,794.9817,800.2198,786.1172
794.17584,795.38464,803.0403,795.78754
789.34064,793.7729,797.3993,797.8022
801.02563,796.1905,797.3993,804.2491
809.89014,801.02563,801.4286,810.293
814.3223,801.8315,805.05493,806.6667
806.6667,800.6227,813.5165,808.68134
800.2198,802.6374,817.5458,811.50183
805.4579,801.02563,811.50183,803.44324
793.7729,795.38464,805.05493,785.31134
792.5641,804.2491,802.23444,780.87915
812.3077,808.68134,801.02563,805.4579
809.4872,803.8461,802.6374,815.9341
808.68134,804.2491,810.293,807.47253
798.60803,799.81683,809.0842,797.8022
789.34064,793.36993,805.8608,785.31134
799.011,797.8022,803.8461,784.10254
792.5641,796.5934,799.81683,785.7143
786.9231,793.36993,801.02563,785.31134
790.9524,795.38464,804.65204,786.9231
793.7729,792.1612,804.65204,779.67035
797.3993,792.5641,800.2198,789.7436
801.4286,803.0403,802.6374,799.011
799.011,801.8315,800.2198,793.7729
801.8315,795.38464,799.41394,793.36993
797.8022,793.7729,804.65204,803.8461
793.36993,795.78754,807.0696,807.47253
791.3553,799.011,809.4872,798.20514
793.36993,803.0403,810.293,799.41394
806.26373,810.293,805.05493,796.5934
807.8755,809.89014,803.44324,788.5348
790.14655,805.4579,810.696,795.78754
789.34064,809.0842,813.5165,791.75824
798.20514,807.0696,805.05493,786.9231
790.9524,809.89014,808.2784,780.07324
788.5348,801.4286,809.89014,783.2967
784.10254,796.99634,810.696,789.34064
788.5348,796.1905,809.89014,799.011
787.72894,788.5348,811.0989,793.7729
788.1319,791.75824,805.8608,776.4469
796.5934,801.4286,796.99634,774.83514
799.81683,798.60803,793.36993,786.9231
794.17584,800.6227,800.2198,799.41394
793.36993,800.6227,807.47253,800.6227
795.78754,792.1612,811.9048,787.326
790.54944,792.1612,813.5165,780.4762
790.54944,797.3993,808.68134,782.0879
785.31134,796.1905,805.8608,785.31134
786.1172,792.96704,810.696,790.14655
805.4579,798.60803,807.8755,793.7729
795.38464,801.8315,804.2491,787.326
805.8608,810.293,799.81683,786.52014
801.8315,798.60803,811.50183,796.99634
799.81683,805.05493,803.0403,794.17584
796.99634,803.0403,801.8315,794.9817
811.0989,805.05493,809.89014,791.75824
809.89014,802.23444,809.0842,786.9231
811.9048,807.0696,805.05493,803.8461
817.5458,815.12823,805.8608,818.3516
808.2784,806.6667,807.47253,809.0842
803.0403,801.02563,804.2491,798.20514
795.78754,802.6374,800.2198,797.3993
796.1905,808.2784,795.78754,796.1905
803.0403,811.50183,798.20514,803.0403
804.65204,806.26373,801.8315,796.5934
801.02563,812.3077,802.23444,787.326
800.6227,811.50183,803.8461,788.93774
809.89014,814.7253,803.44324,812.3077
810.293,813.91943,806.26373,812.3077
803.8461,805.05493,806.6667,802.23444
796.99634,810.293,809.89014,797.3993
787.326,803.44324,804.65204,782.0879
799.41394,802.23444,797.8022,798.60803
803.44324,807.8755,795.78754,812.3077
803.8461,806.6667,801.02563,806.26373
803.0403,805.05493,803.0403,800.6227
801.02563,801.8315,805.05493,797.8022
795.78754,807.47253,808.2784,802.23444
797.8022,815.9341,810.293,809.4872
806.26373,807.8755,810.293,817.9487
806.6667,799.011,809.89014,822.381
814.3223,798.60803,809.89014,809.4872
820.3663,803.0403,809.0842,809.0842
804.2491,807.8755,811.9048,815.12823
805.05493,804.2491,814.3223,813.91943
802.6374,796.99634,811.50183,801.8315
801.4286,799.41394,809.4872,793.7729
804.2491,807.47253,800.6227,798.20514
799.011,807.0696,796.99634,794.57874
806.26373,803.44324,801.4286,795.38464
812.3077,803.44324,799.41394,797.3993
814.7253,800.2198,795.78754,790.54944
804.65204,798.20514,799.011,790.54944
805.05493,807.8755,799.41394,795.38464
820.3663,812.3077,807.8755,805.05493
819.5604,807.0696,811.9048,811.50183
809.4872,805.05493,805.8608,803.0403
805.4579,807.47253,809.0842,796.1905
799.81683,805.05493,807.47253,806.26373
797.3993,807.0696,805.05493,807.47253
799.011,814.3223,804.2491,796.1905
802.23444,806.6667,802.6374,789.7436
804.65204,804.65204,802.23444,790.9524
810.293,807.0696,805.05493,796.5934
810.293,805.8608,803.0403,798.60803
805.8608,803.0403,798.20514,795.78754
806.26373,799.41394,800.6227,790.9524
809.0842,795.78754,802.6374,786.9231
809.4872,799.41394,807.47253,798.20514
817.1429,803.8461,807.47253,815.9341
811.0989,801.8315,805.05493,814.7253
815.9341,799.011,804.65204,814.7253
817.1429,803.8461,801.8315,797.8022
806.26373,810.696,802.23444,792.1612
807.8755,806.26373,807.8755,813.1135
814.3223,804.2491,808.2784,807.0696
817.5458,805.4579,804.2491,797.8022
806.6667,802.6374,804.65204,798.60803
805.05493,811.50183,809.4872,807.0696
807.47253,803.8461,809.89014,819.5604
807.8755,799.41394,806.26373,817.5458
809.4872,803.44324,805.4579,807.0696
806.26373,797.8022,803.8461,803.44324
802.6374,802.6374,800.6227,804.65204
803.44324,808.2784,804.65204,810.696
815.12823,807.47253,811.50183,814.7253
807.47253,804.2491,809.89014,806.6667
796.5934,805.4579,806.26373,807.0696
794.57874,805.4579,807.47253,806.26373
800.2198,803.8461,804.65204,807.0696
797.8022,805.05493,803.8461,803.0403
804.2491,806.26373,801.4286,801.8315
799.011,803.0403,805.4579,802.6374
816.7399,799.81683,806.26373,811.50183
817.5458,800.2198,809.0842,822.7839
807.47253,806.6667,806.26373,818.7546
801.4286,806.26373,803.8461,816.337
801.02563,811.0989,805.4579,809.4872
798.20514,808.2784,802.6374,794.57874
813.1135,803.44324,802.23444,811.50183
813.91943,809.4872,798.60803,815.5311
803.0403,800.6227,793.36993,797.8022
806.6667,801.4286,794.9817,795.78754
809.0842,804.65204,797.8022,796.1905
809.0842,801.4286,800.2198,799.011
811.50183,803.0403,796.5934,801.8315
813.5165,805.05493,794.9817,801.8315
807.8755,801.02563,797.8022,799.41394
801.02563,801.4286,799.81683,796.1905
805.4579,802.6374,800.6227,801.02563
802.23444,800.2198,799.81683,801.4286
794.9817,801.02563,799.81683,799.41394
799.011,800.2198,803.44324,797.3993
792.5641,804.2491,800.2198,793.7729
801.02563,804.65204,801.8315,796.1905
809.4872,810.696,802.23444,799.011
797.3993,804.2491,799.41394,797.3993
801.4286,801.02563,799.41394,790.54944
811.9048,809.0842,791.75824,784.5055
815.9341,806.6667,795.78754,795.78754
816.337,803.8461,799.011,805.05493
803.44324,806.26373,799.011,801.8315
792.1612,804.65204,801.02563,793.7729
804.65204,797.8022,803.0403,793.36993
807.8755,802.23444,807.47253,802.6374
794.9817,814.3223,805.8608,809.0842
798.20514,811.50183,805.05493,816.337
803.0403,801.8315,807.8755,807.47253
799.011,803.8461,806.26373,787.72894
803.0403,803.0403,805.4579,791.3553
801.8315,803.44324,805.4579,804.65204
800.6227,804.65204,802.23444,811.9048
802.23444,804.2491,802.6374,799.41394
807.47253,797.8022,804.65204,791.3553
809.0842,800.6227,802.23444,807.8755
809.89014,812.71063,802.6374,820.7692
811.0989,812.71063,803.8461,811.9048
809.89014,806.6667,803.0403,802.23444
798.60803,811.0989,800.2198,798.60803
799.41394,808.68134,804.65204,808.2784
809.89014,804.65204,811.9048,813.5165
804.2491,807.0696,807.47253,796.5934
800.2198,811.0989,809.4872,798.20514
807.8755,821.1722,816.7399,803.0403
822.7839,819.9634,816.337,800.6227
821.5751,826.4103,820.7692,811.9048
816.337,834.0659,824.3956,816.7399
824.7985,825.6044,821.5751,813.91943
809.89014,816.337,819.9634,813.91943
806.26373,804.2491,817.1429,809.89014
813.5165,811.50183,815.12823,810.696
800.2198,811.9048,814.3223,811.9048
801.02563,807.47253,814.7253,799.81683
811.50183,814.3223,812.3077,796.1905
812.3077,816.337,808.68134,801.02563
806.26373,811.9048,810.293,805.05493
811.0989,811.50183,808.68134,812.3077
807.0696,815.5311,803.44324,812.3077
805.4579,814.7253,801.4286,803.44324
810.696,809.0842,806.26373,799.41394
809.0842,808.68134,813.5165,803.8461
804.65204,808.68134,817.5458,808.2784
795.78754,808.68134,817.9487,807.47253
790.9524,808.2784,812.3077,795.38464
788.1319,799.41394,806.6667,785.7143
795.78754,801.8315,798.20514,790.54944
796.1905,805.4579,797.3993,794.57874
791.3553,803.44324,803.8461,796.1905
787.72894,805.8608,801.02563,800.6227
786.52014,809.0842,802.6374,794.17584
790.14655,811.9048,806.26373,788.93774
801.4286,810.696,811.50183,805.4579
798.20514,810.696,813.91943,813.5165
795.38464,812.71063,811.0989,796.5934
795.38464,813.5165,807.0696,791.3553
807.0696,806.6667,797.8022,801.8315
806.26373,803.44324,802.23444,807.0696
795.38464,802.6374,800.6227,793.36993
788.93774,802.23444,796.1905,783.69965
791.75824,805.8608,803.44324,785.7143
798.20514,803.44324,805.8608,799.011
794.9817,804.65204,799.81683,797.3993
795.78754,805.4579,796.99634,787.72894
806.6667,807.8755,797.3993,797.8022
812.71063,803.44324,803.0403,796.1905
809.4872,800.6227,801.8315,782.0879
796.1905,800.6227,796.5934,786.1172
794.17584,802.6374,796.99634,791.75824
795.38464,808.2784,794.57874,789.34064
797.8022,800.2198,797.3993,790.9524
808.2784,797.3993,804.65204,797.3993
796.5934,798.20514,805.05493,799.81683
793.7729,799.41394,801.02563,800.6227
811.9048,803.0403,802.6374,817.1429
809.4872,802.6374,801.02563,814.3223
801.02563,798.20514,801.02563,794.9817
801.4286,794.9817,806.6667,798.60803
800.2198,799.41394,808.68134,800.6227
799.011,809.4872,810.293,796.99634
798.60803,814.7253,811.0989,797.3993
803.8461,813.5165,810.293,792.96704
806.6667,807.0696,810.696,801.4286
794.9817,801.02563,810.696,806.26373
789.7436,803.0403,810.696,803.44324
794.9817,804.2491,810.696,795.38464
798.60803,802.23444,807.8755,786.9231
799.81683,801.4286,805.05493,798.60803
804.2491,801.4286,803.8461,805.4579
797.3993,801.02563,805.8608,797.8022
790.9524,796.99634,806.6667,796.1905
796.99634,796.1905,807.47253,796.5934
802.23444,799.81683,807.8755,801.02563
803.44324,800.6227,807.47253,808.68134
806.26373,801.4286,805.8608,803.8461
804.65204,801.02563,805.05493,796.1905
797.3993,806.26373,805.05493,792.96704
800.2198,805.05493,802.6374,799.81683
805.05493,801.4286,798.20514,802.6374
802.23444,809.4872,797.8022,796.5934
802.6374,817.9487,805.05493,796.5934
805.05493,812.71063,806.26373,794.57874
812.71063,815.12823,805.4579,804.65204
812.71063,822.7839,804.2491,812.3077
806.26373,817.9487,805.4579,811.9048
814.7253,813.1135,809.0842,810.696
811.9048,807.0696,807.47253,800.2198
805.05493,811.9048,808.2784,799.81683
809.89014,813.1135,803.44324,806.6667
806.26373,806.6667,804.2491,809.4872
798.60803,804.2491,807.47253,809.4872
805.4579,799.81683,809.4872,801.8315
805.4579,801.4286,805.4579,797.3993
788.5348,805.4579,795.78754,784.90845
799.41394,803.0403,801.8315,791.75824
800.6227,810.293,805.05493,799.41394
795.78754,814.3223,803.8461,793.36993
803.44324,804.2491,803.8461,790.9524
792.96704,801.4286,807.0696,793.7729
780.07324,805.05493,809.4872,784.5055
779.2674,807.0696,805.4579,776.8498
787.72894,807.0696,801.4286,782.0879
790.9524,801.4286,797.3993,780.87915
782.8938,797.3993,803.0403,794.9817
781.28204,795.38464,795.78754,784.90845
784.5055,799.81683,799.81683,786.9231
787.326,799.011,799.41394,796.99634
792.1612,802.23444,805.4579,799.41394
782.49084,809.89014,809.4872,791.3553
778.86444,804.2491,806.26373,780.4762
780.07324,802.23444,803.8461,796.1905
789.34064,793.36993,805.8608,791.75824
799.011,802.6374,799.41394,787.72894
798.60803,805.4579,803.8461,800.6227
803.44324,795.38464,811.9048,810.293
800.2198,805.05493,808.68134,804.2491
795.78754,804.2491,803.44324,791.75824
807.8755,800.6227,808.68134,788.93774
803.8461,811.9048,804.2491,786.9231
792.5641,817.1429,801.02563,799.011
798.60803,817.5458,798.60803,809.89014
811.0989,817.1429,801.8315,807.47253
816.337,814.3223,811.9048,807.0696
809.4872,816.7399,805.8608,805.4579
796.1905,810.696,798.60803,796.5934
800.6227,804.65204,798.20514,800.2198
807.8755,807.0696,803.8461,804.65204
803.0403,805.4579,809.0842,807.0696
795.78754,807.47253,803.0403,805.05493
783.2967,810.293,797.3993,794.9817
796.1905,816.337,801.02563,789.7436
801.8315,805.4579,809.89014,805.4579
810.293,809.0842,801.4286,799.41394
809.89014,803.0403,799.81683,812.3077
814.7253,805.4579,803.0403,814.3223
803.44324,810.696,807.0696,806.6667
806.6667,807.0696,807.47253,802.23444
805.8608,809.0842,803.44324,807.8755
801.8315,800.6227,801.8315,789.7436
797.8022,803.8461,802.23444,790.9524
795.78754,806.6667,803.8461,794.17584
796.99634,801.8315,802.6374,782.49084
796.99634,803.44324,801.4286,786.52014
793.7729,812.71063,796.99634,790.54944
806.6667,810.696,802.23444,795.38464
806.26373,803.0403,807.0696,799.81683
799.81683,802.6374,801.02563,798.20514
804.65204,805.8608,804.65204,799.41394
806.6667,802.23444,804.65204,804.2491
799.81683,800.2198,800.6227,794.9817
790.54944,800.2198,805.4579,793.7729
804.2491,798.20514,808.68134,814.7253
805.8608,797.3993,803.0403,807.0696
790.9524,792.96704,799.011,780.87915
794.9817,794.17584,799.81683,782.8938
792.1612,794.17584,802.6374,794.9817
784.10254,794.9817,800.6227,799.81683
793.7729,796.99634,801.02563,800.2198
794.9817,794.9817,800.6227,792.96704
788.93774,800.6227,797.3993,799.41394
788.5348,805.05493,796.5934,802.6374
794.17584,802.23444,799.81683,795.78754
789.7436,801.8315,799.41394,791.3553
790.14655,803.44324,796.5934,785.31134
803.44324,805.05493,797.8022,793.36993
807.0696,810.293,797.8022,804.2491
788.93774,811.50183,795.78754,790.54944
787.72894,801.8315,801.8315,794.57874
806.6667,799.011,804.65204,801.02563
807.0696,801.4286,802.6374,799.41394
799.81683,809.89014,804.2491,796.1905
805.8608,810.293,800.2198,798.20514
799.41394,809.0842,801.02563,801.8315
801.8315,812.3077,799.81683,793.7729
802.23444,808.2784,796.1905,789.7436
788.5348,804.65204,801.02563,796.5934
794.57874,810.293,802.6374,806.6667
806.6667,811.0989,802.23444,804.2491
799.41394,807.0696,800.6227,792.96704
800.6227,808.2784,798.20514,796.99634
806.26373,804.2491,798.60803,810.696
812.3077,803.8461,800.2198,816.7399
811.50183,806.6667,797.8022,805.05493
800.6227,803.44324,799.81683,797.8022
798.20514,797.8022,798.60803,795.38464
798.60803,801.4286,792.5641,804.2491
801.8315,799.41394,802.23444,815.9341
810.293,805.05493,806.26373,812.71063
800.6227,802.23444,800.2198,807.0696
795.38464,795.78754,804.65204,801.8315
799.81683,798.20514,805.8608,802.23444
796.5934,800.2198,805.8608,805.05493
809.4872,801.4286,801.4286,813.1135
816.337,801.4286,801.4286,813.91943
801.8315,803.44324,802.23444,795.38464
798.60803,804.65204,802.23444,802.6374
802.6374,807.47253,803.44324,816.337
801.4286,807.8755,801.8315,807.0696
804.2491,804.65204,807.8755,810.293
802.6374,807.8755,812.3077,792.5641
809.89014,812.71063,815.5311,815.12823
808.2784,811.9048,818.3516,817.9487
803.44324,820.7692,807.8755,801.8315
814.7253,819.9634,806.6667,803.0403
794.9817,812.71063,808.68134,786.1172
817.5458,804.2491,810.293,808.2784
808.2784,797.8022,812.71063,813.1135
803.44324,803.0403,816.7399,822.381
807.47253,803.0403,817.1429,818.7546
809.89014,803.44324,820.7692,805.05493
805.05493,807.47253,815.5311,801.02563
803.44324,808.68134,809.4872,808.2784
811.0989,807.47253,810.293,812.3077
818.7546,804.65204,810.696,814.7253
812.3077,803.0403,809.4872,811.50183
803.8461,803.8461,813.1135,798.60803
798.60803,807.47253,813.91943,799.81683
801.8315,808.68134,811.50183,804.65204
808.2784,805.05493,810.696,804.65204
810.696,809.0842,809.4872,801.02563
802.6374,815.5311,807.8755,792.1612
799.41394,808.68134,804.2491,798.60803
800.2198,807.0696,799.41394,803.0403
810.293,808.2784,799.011,805.4579
820.3663,810.293,805.05493,812.3077
816.7399,810.696,811.50183,809.4872
809.4872,807.0696,806.6667,810.293
804.2491,812.3077,803.8461,813.1135
809.4872,812.71063,803.44324,809.0842
811.9048,809.0842,801.8315,805.8608
809.89014,807.0696,805.4579,800.6227
813.91943,808.2784,806.6667,802.6374
811.50183,818.7546,804.65204,807.47253
811.9048,817.1429,804.2491,804.65204
808.68134,810.696,801.4286,799.41394
811.0989,809.4872,799.011,804.2491
816.337,809.4872,805.05493,802.6374
810.696,809.4872,806.26373,797.3993
810.696,801.02563,805.05493,799.81683
808.2784,807.8755,806.26373,811.50183
801.4286,805.4579,805.8608,823.1868
803.0403,801.8315,808.2784,821.978
799.41394,805.8608,807.0696,814.3223
805.05493,808.68134,810.293,815.12823
821.1722,810.696,811.9048,812.71063
808.2784,806.26373,809.89014,799.011
802.23444,806.26373,805.8608,794.57874
798.60803,805.4579,800.6227,798.20514
792.1612,803.8461,803.44324,799.81683
799.41394,807.8755,810.293,798.20514
803.0403,811.50183,809.89014,783.2967
799.81683,807.0696,798.20514,778.46155
797.3993,803.0403,793.7729,791.75824
786.52014,807.0696,799.011,792.96704
790.9524,799.81683,796.5934,788.5348
800.2198,796.5934,796.99634,788.1319
794.9817,804.2491,801.02563,780.4762
795.38464,801.02563,800.6227,778.86444
795.78754,804.2491,803.0403,792.1612
792.1612,798.20514,806.6667,798.60803
787.326,795.38464,804.2491,788.93774
794.17584,801.8315,802.6374,780.87915
792.1612,808.2784,805.05493,784.90845
794.17584,809.0842,805.05493,795.38464
797.3993,796.5934,804.65204,804.65204
791.75824,793.7729,803.8461,795.78754
788.1319,800.6227,804.2491,780.4762
784.90845,800.6227,803.8461,784.10254
788.1319,801.4286,808.2784,797.3993
802.23444,808.2784,807.8755,801.8315
801.8315,807.47253,802.6374,794.9817
799.41394,809.0842,801.02563,788.1319
805.05493,806.26373,802.23444,797.3993
791.75824,802.23444,801.02563,803.0403
790.9524,805.4579,805.4579,804.65204
808.68134,807.8755,809.4872,801.8315
815.5311,807.0696,805.8608,797.8022
803.8461,805.4579,805.05493,805.8608
801.02563,807.47253,804.65204,802.23444
803.8461,810.293,803.44324,792.96704
807.8755,811.50183,805.05493,791.3553
811.50183,807.0696,802.6374,788.5348
808.2784,805.05493,801.4286,798.20514
807.47253,807.8755,807.47253,815.9341
789.7436,799.41394,803.44324,796.99634
794.17584,797.8022,799.41394,780.07324
799.011,807.47253,808.2784,817.9487
794.17584,801.4286,795.38464,774.43225
792.1612,805.4579,795.38464,784.90845
815.9341,812.3077,800.2198,807.8755
817.5458,812.71063,805.8608,811.9048
800.2198,803.44324,805.8608,794.9817
806.26373,805.4579,807.8755,788.93774
804.65204,811.9048,808.2784,799.41394
802.23444,813.1135,802.6374,807.8755
803.44324,810.293,806.6667,807.0696
803.44324,807.47253,811.9048,803.0403
799.81683,807.47253,804.2491,797.3993
804.65204,813.1135,805.05493,795.38464
813.1135,815.12823,809.89014,796.5934
810.293,809.4872,808.68134,803.0403
814.3223,805.4579,807.8755,805.8608
812.3077,808.2784,806.6667,798.20514
804.65204,811.0989,805.05493,792.5641
806.26373,811.50183,803.8461,807.47253
814.3223,802.6374,804.2491,821.978
823.5897,803.44324,804.2491,824.7985
816.337,811.0989,800.2198,817.9487
804.65204,801.8315,797.8022,807.0696
804.2491,803.0403,801.02563,810.293
800.6227,803.44324,800.6227,802.6374
805.4579,807.47253,796.1905,792.5641
813.1135,817.5458,797.3993,800.2198
807.0696,809.0842,802.23444,814.3223
811.50183,807.8755,806.26373,816.7399
804.65204,817.5458,807.8755,811.50183
795.78754,811.50183,802.6374,813.5165
804.65204,804.65204,796.99634,802.23444
803.44324,808.68134,798.20514,795.38464
795.78754,805.05493,803.0403,804.65204
789.34064,802.23444,799.81683,810.696
790.14655,809.0842,799.41394,804.65204
804.65204,809.89014,805.05493,796.99634
804.2491,806.6667,805.4579,795.38464
792.96704,803.44324,801.8315,793.36993
794.57874,800.2198,792.5641,789.7436
803.8461,803.0403,796.1905,791.3553
807.47253,806.26373,799.41394,790.14655
809.89014,803.8461,802.6374,799.011
809.89014,803.8461,805.05493,805.05493
810.696,802.6374,803.0403,798.60803
789.34064,804.2491,804.65204,794.17584
806.26373,803.44324,802.6374,804.65204
809.89014,807.0696,803.0403,805.4579
807.8755,806.6667,804.2491,799.81683
787.72894,805.8608,806.6667,792.1612
794.57874,804.2491,809.0842,797.8022
800.2198,803.44324,803.8461,788.93774
800.6227,804.2491,796.5934,775.2381
796.99634,803.8461,797.3993,781.28204
809.4872,809.89014,797.8022,796.5934
823.9927,810.293,809.0842,802.6374
812.3077,807.8755,819.5604,797.3993
798.60803,805.8608,813.91943,786.9231
800.2198,800.6227,807.0696,794.57874
800.2198,799.81683,808.68134,802.23444
808.68134,803.8461,813.1135,800.6227
804.65204,807.0696,814.3223,793.36993
806.6667,807.47253,809.4872,792.1612
807.0696,807.8755,808.2784,802.23444
796.1905,811.50183,809.4872,799.41394
798.20514,806.26373,807.47253,790.9524
805.8608,807.0696,804.2491,796.99634
805.8608,811.0989,803.0403,788.1319
792.96704,802.23444,794.57874,803.8461
792.96704,802.6374,796.1905,801.8315
798.60803,801.8315,798.60803,790.14655
797.8022,807.0696,798.60803,786.52014
799.81683,802.6374,796.99634,781.685
794.9817,801.02563,794.9817,790.14655
801.4286,801.02563,799.011,794.57874
801.8315,803.8461,800.6227,794.17584
798.60803,801.8315,795.78754,789.7436
801.8315,795.38464,795.78754,782.0879
808.2784,797.3993,799.011,792.1612
807.47253,803.44324,799.011,804.65204
801.4286,805.4579,795.78754,804.65204
805.8608,809.89014,797.3993,805.05493
813.1135,809.89014,799.41394,799.41394
815.12823,806.6667,798.60803,797.8022
803.44324,806.6667,801.4286,799.81683
798.60803,811.9048,801.02563,804.65204
819.9634,809.0842,802.6374,807.8755
816.7399,802.6374,807.0696,802.6374
811.50183,810.696,802.23444,816.7399
808.68134,805.05493,812.3077,813.1135
804.65204,813.5165,809.0842,815.12823
805.8608,804.65204,807.0696,807.8755
802.23444,805.8608,806.6667,797.3993
802.6374,812.71063,805.4579,788.5348
802.23444,808.2784,803.0403,794.17584
801.8315,805.4579,804.65204,799.011
792.1612,803.44324,800.2198,792.5641
790.14655,803.0403,800.6227,787.72894
794.57874,803.0403,804.2491,790.14655
795.38464,805.4579,801.8315,803.0403
805.05493,807.0696,802.23444,806.6667
804.65204,811.9048,808.2784,799.81683
798.60803,808.68134,804.65204,807.47253
809.4872,808.2784,805.05493,806.6667
814.7253,815.9341,805.8608,798.20514
809.89014,809.4872,804.65204,813.1135
806.26373,806.26373,800.6227,814.3223
806.6667,807.47253,795.78754,807.47253
805.05493,806.6667,800.2198,801.8315
806.26373,805.8608,806.6667,798.20514
813.91943,806.26373,803.0403,811.0989
817.1429,803.8461,799.81683,815.12823
808.2784,806.6667,796.99634,807.47253
813.1135,811.9048,793.36993,798.20514
819.15753,811.0989,801.8315,808.2784
823.5897,807.47253,803.8461,823.1868
821.5751,807.8755,799.41394,820.3663
819.15753,811.0989,800.2198,822.381
810.696,809.4872,799.81683,807.0696
796.1905,807.0696,799.81683,806.26373
793.7729,803.8461,802.23444,811.0989
801.4286,803.0403,805.8608,798.60803
808.68134,807.0696,803.0403,800.2198
817.9487,802.23444,799.011,800.2198
816.7399,801.02563,797.8022,794.57874
811.9048,804.65204,796.99634,807.8755
813.91943,799.81683,798.60803,810.696
803.44324,808.2784,804.65204,805.4579
810.696,808.68134,809.4872,804.2491
813.91943,799.41394,806.6667,798.20514
803.44324,800.2198,803.0403,817.1429
807.8755,806.6667,801.8315,808.68134
806.26373,811.50183,798.60803,806.6667
804.2491,798.60803,800.6227,809.4872
803.0403,803.44324,800.2198,802.6374
802.6374,797.8022,796.1905,806.26373
800.6227,803.8461,793.7729,809.0842
808.68134,807.47253,798.20514,807.0696
807.47253,802.6374,800.6227,802.6374
803.8461,809.0842,798.60803,804.65204
808.68134,807.8755,797.3993,805.4579
805.05493,799.81683,794.57874,804.65204
809.0842,810.696,795.38464,802.23444
813.1135,809.0842,798.20514,797.8022
808.2784,803.8461,796.1905,794.57874
815.12823,813.91943,797.8022,810.696
815.9341,820.7692,802.6374,820.3663
815.12823,813.91943,805.8608,814.3223
817.1429,812.71063,802.6374,806.6667
817.1429,813.1135,797.3993,797.8022
818.7546,813.1135,798.60803,811.9048
811.0989,814.7253,796.1905,809.4872
811.50183,813.1135,791.3553,799.41394
812.71063,812.3077,796.1905,803.0403
814.7253,813.5165,801.8315,802.6374
817.9487,814.3223,803.0403,807.0696
812.71063,817.1429,799.81683,807.47253
810.293,818.3516,797.3993,809.89014
811.9048,804.65204,796.99634,807.8755
816.337,797.3993,795.78754,800.6227
812.3077,798.60803,796.1905,801.8315
810.696,797.8022,799.81683,816.337
813.5165,804.65204,802.6374,819.9634
809.0842,806.26373,808.2784,807.0696
809.89014,807.47253,805.8608,799.81683
815.12823,809.4872,806.6667,801.4286
809.89014,813.91943,812.3077,806.26373
810.293,811.0989,805.05493,806.26373
820.7692,800.6227,799.011,811.0989
817.1429,805.4579,801.02563,799.011
807.0696,806.6667,797.8022,785.7143
805.05493,806.26373,800.6227,803.0403
810.293,809.4872,802.23444,804.2491
807.0696,807.0696,797.8022,800.2198
803.8461,805.05493,802.6374,798.60803
815.5311,811.9048,806.26373,791.75824
819.9634,813.1135,805.8608,798.60803
807.47253,804.65204,805.05493,801.4286
808.2784,805.4579,803.0403,803.44324
805.4579,808.68134,801.4286,796.99634
794.9817,810.293,803.0403,791.75824
798.60803,807.8755,806.6667,801.02563
801.02563,802.6374,807.8755,795.38464
803.44324,805.4579,806.6667,791.75824
806.26373,803.44324,800.6227,795.78754
790.54944,805.4579,794.17584,779.67035
789.34064,804.65204,799.81683,788.93774
809.0842,807.47253,804.2491,814.3223
810.293,810.293,803.8461,809.89014
803.44324,804.2491,807.0696,801.02563
797.8022,807.0696,805.8608,805.05493
798.20514,807.47253,807.47253,801.4286
804.65204,805.05493,802.6374,802.23444
793.7729,802.23444,801.4286,782.49084
799.011,809.0842,807.47253,795.38464
794.9817,807.0696,805.05493,801.4286
810.696,802.6374,802.23444,801.4286
799.81683,801.4286,801.02563,780.87915
794.57874,801.02563,803.44324,802.6374
793.7729,801.8315,803.8461,800.6227
801.8315,803.0403,805.8608,798.20514
800.6227,805.05493,805.8608,802.6374
804.2491,803.0403,807.8755,813.1135
808.68134,800.2198,807.0696,815.9341
802.6374,801.02563,805.4579,809.0842
805.4579,808.68134,801.4286,805.4579
807.0696,815.12823,796.99634,807.8755
800.2198,796.5934,801.8315,815.5311
803.44324,802.23444,797.8022,807.0696
801.02563,801.4286,802.23444,815.12823
809.4872,802.6374,804.2491,800.6227
809.89014,801.02563,801.8315,802.6374
804.2491,809.0842,802.6374,808.2784
799.011,802.6374,803.0403,805.8608
804.2491,803.44324,798.60803,793.36993
801.4286,809.4872,804.2491,809.89014
807.0696,805.8608,799.81683,792.5641
797.3993,805.4579,800.6227,807.47253
804.65204,804.65204,804.65204,801.4286
807.8755,809.0842,807.8755,798.20514
810.696,804.65204,806.6667,799.41394
807.8755,806.26373,806.6667,803.0403
803.0403,813.5165,809.4872,803.44324
798.60803,803.8461,802.6374,805.4579
799.011,810.293,807.8755,802.6374
799.81683,805.4579,809.4872,803.0403
798.20514,803.0403,807.47253,796.1905
807.8755,803.0403,805.05493,796.99634
808.2784,805.8608,803.8461,801.8315
799.41394,810.293,804.2491,807.8755
790.9524,805.8608,803.0403,806.6667
797.3993,800.2198,803.0403,803.44324
803.44324,804.65204,811.9048,815.5311
810.293,803.8461,807.0696,813.1135
806.6667,810.293,808.68134,807.47253
799.011,806.6667,815.12823,811.50183
812.3077,805.05493,805.8608,811.50183
809.0842,800.6227,807.47253,809.4872
811.9048,805.8608,804.65204,815.5311
799.81683,815.9341,804.2491,818.7546
792.1612,808.2784,805.05493,798.60803
805.05493,803.8461,806.26373,794.57874
801.4286,808.68134,803.44324,800.6227
805.05493,805.8608,803.8461,803.0403
818.3516,807.0696,809.0842,812.71063
815.5311,808.2784,803.44324,811.9048
805.4579,803.0403,797.8022,792.5641
808.2784,800.2198,796.99634,788.1319
815.5311,803.8461,801.02563,805.05493
804.65204,805.8608,806.6667,813.5165
802.6374,807.47253,799.81683,799.81683
801.02563,809.4872,804.65204,807.0696
810.696,804.2491,797.8022,799.41394
808.68134,807.47253,799.41394,803.8461
806.26373,804.2491,805.05493,808.68134
811.0989,803.44324,806.26373,813.5165
806.6667,802.23444,805.05493,804.65204
811.0989,799.81683,803.8461,799.011
812.3077,806.26373,803.8461,810.293
804.2491,807.8755,807.47253,809.0842
808.2784,809.4872,807.0696,814.3223
811.0989,805.05493,799.011,809.4872
806.26373,797.3993,799.81683,794.9817
802.23444,800.6227,804.2491,806.6667
805.4579,801.02563,804.2491,820.3663
807.0696,803.0403,808.2784,819.9634
807.47253,805.8608,804.2491,811.50183
800.2198,796.1905,799.41394,807.0696
797.3993,788.93774,801.4286,804.2491
803.44324,794.57874,799.011,809.4872
799.011,796.5934,795.78754,805.05493
790.9524,798.20514,795.38464,791.75824
786.9231,800.6227,792.5641,781.685
795.38464,795.78754,794.9817,789.34064
813.91943,796.5934,804.2491,814.7253
810.696,799.41394,802.23444,809.0842
812.71063,797.8022,804.2491,796.99634
823.5897,805.05493,811.0989,803.44324
814.3223,799.41394,802.6374,799.81683
814.3223,792.1612,801.8315,809.4872
825.6044,799.011,809.4872,819.15753
820.7692,795.38464,811.9048,821.1722
821.5751,801.4286,811.9048,817.9487
834.87177,812.71063,816.337,830.84247
830.4396,810.696,829.2308,855.0183
813.5165,805.05493,824.7985,842.52747
802.23444,800.6227,807.0696,822.7839
801.4286,798.60803,802.23444,805.8608
799.41394,797.3993,803.44324,793.7729
796.99634,802.6374,796.99634,800.2198
796.99634,798.60803,794.9817,801.8315
801.8315,798.60803,797.8022,805.4579
811.0989,801.02563,796.99634,799.011
805.05493,799.41394,801.02563,794.17584
797.3993,802.6374,804.65204,805.8608
807.0696,801.8315,807.8755,815.12823
801.4286,801.8315,804.2491,815.12823
811.9048,802.6374,803.0403,802.6374
813.91943,798.20514,803.8461,812.71063
812.71063,807.47253,810.696,813.1135
815.5311,811.9048,816.7399,811.0989
812.3077,807.8755,812.3077,800.6227
807.8755,803.44324,807.0696,794.9817
823.9927,801.8315,805.4579,803.44324
809.0842,797.3993,811.9048,811.50183
809.0842,797.3993,811.0989,808.2784
801.8315,801.02563,803.8461,799.011
795.78754,803.44324,799.81683,794.17584
801.4286,809.0842,800.6227,779.67035
812.71063,813.91943,809.89014,793.7729
809.0842,806.26373,809.4872,815.12823
806.26373,796.99634,804.2491,808.2784
810.696,801.8315,806.6667,796.5934
809.4872,813.91943,802.23444,787.72894
810.293,805.05493,797.8022,802.6374
817.1429,796.1905,796.5934,820.7692
811.50183,805.05493,798.20514,799.81683
801.02563,809.0842,799.81683,784.90845
805.4579,800.2198,799.41394,784.90845
799.81683,800.6227,800.6227,788.1319
798.20514,803.8461,800.2198,792.5641
807.0696,803.44324,799.81683,798.60803
805.8608,805.4579,801.8315,794.9817
808.2784,807.47253,805.05493,794.9817
809.89014,809.4872,806.26373,799.81683
805.8608,807.8755,803.44324,796.5934
808.2784,807.8755,799.011,798.60803
808.68134,803.8461,804.2491,803.44324
809.89014,806.26373,807.0696,796.99634
796.99634,803.8461,803.0403,786.9231
790.54944,798.20514,805.05493,803.0403
796.5934,800.2198,807.8755,803.0403
804.65204,799.011,803.0403,797.3993
807.8755,800.6227,805.05493,804.65204
804.2491,807.47253,809.89014,805.05493
807.8755,808.68134,805.8608,811.9048
808.68134,807.47253,806.6667,809.4872
807.47253,805.8608,807.0696,801.8315
805.8608,803.44324,801.02563,800.2198
805.05493,804.2491,800.6227,797.3993
813.1135,806.6667,806.26373,805.4579
809.89014,803.8461,806.6667,812.3077
794.57874,801.4286,804.65204,792.96704
799.81683,802.23444,803.0403,786.1172
807.47253,801.8315,803.8461,786.9231
805.8608,805.05493,807.0696,791.3553
805.05493,801.4286,805.4579,803.8461
799.41394,796.1905,801.4286,803.8461
801.02563,801.4286,801.8315,801.8315
804.65204,804.65204,806.6667,806.6667
804.65204,805.8608,805.4579,809.0842
807.47253,805.4579,805.4579,813.5165
807.0696,805.05493,807.47253,806.26373
800.6227,803.44324,803.44324,791.3553
790.54944,806.6667,802.23444,790.14655
792.5641,805.05493,808.2784,804.2491
805.05493,795.78754,809.89014,816.337
803.44324,796.99634,806.6667,802.6374
803.8461,799.81683,809.0842,806.6667
805.8608,804.2491,811.50183,809.4872
796.1905,803.44324,807.8755,799.41394
801.8315,802.6374,809.0842,810.696
803.8461,802.6374,809.89014,815.12823
801.02563,801.8315,807.8755,809.4872
801.8315,805.05493,805.4579,798.20514
806.26373,801.8315,805.4579,807.8755
798.20514,798.20514,807.47253,812.3077
794.57874,803.44324,809.89014,796.99634
803.0403,804.2491,807.0696,799.41394
800.2198,803.8461,797.3993,798.60803
794.17584,800.2198,798.60803,794.9817
794.9817,800.2198,803.0403,800.6227
796.99634,802.23444,800.2198,807.8755
794.9817,799.81683,802.6374,804.65204
798.20514,797.8022,803.44324,786.1172
803.0403,799.011,802.23444,782.49084
803.44324,796.1905,807.0696,799.81683
793.36993,798.60803,807.8755,809.0842
790.14655,802.6374,804.2491,796.5934
790.14655,809.0842,802.23444,787.326
794.17584,808.2784,804.65204,791.3553
812.3077,799.011,803.8461,805.8608
804.65204,799.81683,801.02563,810.696
798.60803,805.4579,802.23444,801.8315
792.96704,804.2491,800.2198,794.9817
789.7436,799.81683,800.2198,790.54944
799.41394,801.8315,801.8315,798.20514
803.8461,801.8315,799.81683,804.65204
798.20514,800.6227,801.02563,788.1319
806.6667,796.1905,802.6374,793.36993
803.8461,803.0403,800.6227,797.8022
801.4286,792.5641,799.41394,787.326
794.57874,799.011,800.2198,799.011
796.5934,796.1905,800.2198,803.0403
805.05493,795.38464,801.02563,807.47253
813.91943,797.8022,800.6227,799.81683
809.0842,799.41394,803.0403,792.96704
806.6667,804.65204,803.0403,809.89014
814.3223,803.8461,802.23444,814.3223
808.68134,796.1905,799.011,799.81683
809.4872,796.1905,799.41394,797.3993
805.4579,799.011,802.23444,806.6667
801.02563,799.81683,803.0403,814.3223
808.68134,808.2784,803.0403,805.8608
808.2784,808.2784,803.8461,805.05493
806.26373,805.4579,803.0403,799.81683
806.26373,809.89014,804.65204,794.57874
807.0696,803.0403,804.65204,812.71063
798.60803,806.6667,804.2491,803.0403
805.8608,802.6374,802.6374,805.4579
801.02563,806.6667,801.8315,798.60803
806.6667,803.8461,807.8755,810.293
807.0696,807.8755,811.0989,805.4579
803.8461,810.293,810.696,809.0842
797.3993,805.05493,808.2784,805.4579
805.4579,805.8608,811.0989,798.60803
813.1135,811.0989,812.71063,803.44324
809.0842,812.71063,813.5165,815.5311
807.8755,810.293,810.293,812.71063
813.91943,811.9048,809.0842,802.6374
812.3077,809.0842,809.89014,795.38464
807.0696,803.44324,809.0842,799.011
803.44324,801.4286,808.68134,797.3993
805.05493,801.02563,809.89014,796.1905
803.8461,802.6374,805.4579,799.41394
803.0403,805.4579,805.8608,794.57874
808.2784,807.8755,811.50183,794.17584
807.0696,810.696,809.4872,799.41394
810.696,811.9048,811.50183,805.8608
806.26373,807.0696,808.2784,804.65204
803.0403,804.65204,804.2491,799.81683
811.9048,806.26373,807.0696,797.8022
809.0842,807.8755,806.26373,803.44324
805.05493,804.65204,807.47253,807.0696
805.4579,803.44324,804.2491,803.44324
802.23444,802.6374,804.2491,797.8022
802.23444,802.6374,809.4872,799.81683
796.5934,805.05493,808.2784,800.2198
801.02563,801.8315,804.2491,803.8461
809.0842,802.23444,802.23444,799.011
802.6374,802.23444,804.2491,792.5641
802.23444,803.0403,804.65204,790.14655
801.02563,805.4579,804.65204,792.5641
794.9817,803.8461,802.23444,794.57874
795.38464,801.02563,804.2491,792.1612
801.8315,798.60803,801.4286,792.96704
798.60803,798.60803,798.20514,790.14655
793.7729,805.05493,802.6374,789.34064
793.36993,803.44324,802.6374,793.36993
803.44324,801.02563,801.02563,796.5934
810.696,807.8755,802.6374,796.99634
806.26373,800.2198,803.8461,789.7436
806.26373,796.1905,804.2491,795.38464
813.1135,801.02563,810.696,810.696
817.1429,798.20514,811.0989,817.9487
812.3077,802.23444,809.4872,819.5604
807.8755,807.8755,807.0696,808.68134
804.2491,805.8608,803.8461,805.8608
802.6374,804.2491,804.65204,816.337
803.8461,806.6667,805.4579,814.3223
800.6227,803.44324,803.8461,797.3993
794.9817,801.8315,796.99634,787.72894
796.5934,802.6374,796.99634,787.72894
799.41394,805.8608,801.02563,797.3993
797.3993,806.26373,804.65204,800.6227
801.4286,802.23444,806.26373,801.02563
806.26373,803.0403,807.0696,798.60803
800.6227,802.6374,802.6374,793.7729
797.3993,806.26373,803.44324,800.6227
798.60803,803.44324,805.05493,802.23444
792.1612,801.8315,803.8461,794.9817
793.36993,798.60803,803.44324,788.93774
799.011,798.20514,801.02563,789.7436
794.17584,811.0989,803.8461,803.44324
795.78754,812.3077,807.8755,808.68134
796.99634,804.65204,806.6667,801.8315
798.60803,805.05493,808.68134,794.57874
801.4286,806.6667,808.2784,787.326
801.02563,806.6667,804.2491,796.1905
802.6374,802.23444,809.4872,807.47253
800.6227,800.2198,810.293,800.2198
791.3553,803.8461,808.2784,788.1319
792.5641,804.65204,808.68134,794.9817
799.41394,801.8315,805.4579,801.02563
798.20514,796.99634,802.23444,796.99634
794.9817,804.65204,804.65204,795.38464
793.7729,808.2784,807.8755,794.57874
792.5641,802.6374,807.47253,792.96704
793.7729,805.8608,805.8608,790.54944
805.4579,811.50183,806.6667,798.20514
809.89014,809.4872,809.4872,804.2491
793.36993,807.8755,807.8755,799.41394
795.38464,807.8755,803.44324,789.34064
807.8755,815.12823,801.8315,788.93774
810.293,814.3223,803.0403,804.2491
805.4579,803.44324,799.81683,801.02563
800.6227,803.44324,798.60803,790.14655
802.23444,803.8461,799.41394,788.5348
802.6374,796.99634,798.20514,788.5348
807.8755,800.6227,801.8315,795.78754
805.4579,807.8755,801.02563,799.41394
808.68134,812.3077,800.2198,796.99634
802.6374,808.68134,797.8022,781.28204
805.05493,811.0989,797.8022,781.685
804.65204,805.4579,801.4286,792.96704
804.2491,808.2784,802.6374,793.7729
808.2784,809.89014,801.8315,794.57874
807.0696,805.8608,799.41394,790.14655
814.7253,813.1135,804.65204,787.326
818.3516,815.5311,810.696,799.81683
807.8755,808.68134,811.50183,804.2491
803.8461,805.4579,807.47253,796.1905
807.8755,805.05493,803.8461,794.9817
803.0403,807.0696,803.8461,792.96704
807.0696,813.91943,804.65204,799.41394
807.0696,811.50183,802.6374,799.011
802.6374,808.2784,800.6227,797.8022
812.71063,815.12823,809.4872,796.5934
797.8022,797.8022,797.8022,782.0879
801.4286,803.8461,805.05493,795.78754
806.6667,803.0403,802.6374,802.6374
805.4579,803.0403,806.6667,790.14655
806.26373,810.696,803.0403,801.02563
806.26373,809.89014,804.65204,780.07324
797.8022,802.23444,802.6374,780.4762
798.60803,805.4579,803.8461,792.1612
805.05493,804.65204,806.26373,799.41394
804.65204,811.0989,801.8315,785.31134
807.8755,811.0989,806.6667,794.57874
801.8315,808.68134,801.02563,800.2198
805.05493,806.6667,799.81683,786.1172
799.011,805.4579,803.44324,801.8315
807.0696,800.6227,801.8315,789.7436
801.8315,803.8461,801.8315,787.72894
809.89014,799.41394,806.6667,803.0403
799.41394,804.2491,807.47253,796.99634
803.8461,801.8315,803.0403,804.2491
797.8022,801.4286,800.6227,798.60803
797.3993,801.02563,800.6227,791.75824
807.8755,805.05493,801.4286,790.9524
813.5165,808.68134,805.05493,807.47253
798.60803,811.9048,801.8315,807.8755
794.9817,808.68134,799.011,802.23444
803.0403,803.44324,801.02563,798.20514
805.05493,800.2198,801.02563,791.3553
806.6667,799.81683,803.8461,805.05493
809.4872,806.26373,807.47253,812.71063
809.4872,807.8755,806.6667,803.8461
815.12823,809.4872,810.696,803.8461
809.89014,811.50183,805.4579,799.81683
804.2491,808.2784,804.65204,798.60803
807.47253,809.0842,808.68134,804.2491
809.89014,807.8755,801.8315,806.6667
806.26373,807.47253,805.8608,799.81683
807.47253,807.47253,811.0989,794.57874
809.0842,803.44324,803.44324,810.293
808.68134,803.44324,805.8608,803.0403
817.9487,804.2491,802.6374,809.89014
815.12823,804.65204,801.4286,805.4579
817.5458,805.8608,800.6227,805.05493
816.7399,805.4579,802.6374,801.02563
811.9048,804.65204,803.8461,802.6374
812.3077,805.8608,810.293,809.4872
814.7253,808.68134,813.1135,801.02563
808.68134,807.47253,803.0403,791.75824
818.3516,804.2491,803.0403,801.4286
821.1722,801.8315,804.2491,801.4286
811.9048,796.99634,804.65204,803.8461
808.2784,804.65204,808.2784,809.4872
808.68134,809.89014,809.0842,803.0403
805.05493,803.8461,812.3077,805.05493
800.2198,799.41394,809.89014,816.337
802.6374,799.011,800.6227,812.3077
807.8755,798.20514,801.8315,802.6374
820.3663,800.2198,810.696,796.99634
815.9341,803.44324,807.47253,801.02563
804.65204,800.2198,801.4286,801.02563
806.26373,800.6227,802.23444,807.47253
806.6667,804.65204,804.65204,809.0842
807.47253,800.2198,810.293,797.8022
813.1135,805.05493,805.8608,802.23444
806.6667,804.65204,802.23444,810.293
794.57874,799.81683,805.05493,807.8755
803.8461,805.8608,805.8608,809.4872
815.5311,807.0696,807.8755,801.8315
808.2784,809.0842,811.50183,801.8315
810.293,809.4872,811.50183,818.7546
811.9048,806.26373,808.2784,813.5165
812.71063,807.0696,808.68134,803.0403
811.0989,811.9048,806.6667,796.5934
794.57874,804.2491,803.44324,794.57874
785.7143,797.3993,807.47253,804.2491
794.17584,805.8608,812.3077,807.47253
807.8755,805.8608,815.9341,808.68134
807.0696,805.05493,809.89014,803.44324
798.20514,809.0842,803.8461,806.26373
803.44324,809.0842,807.0696,815.12823
806.6667,806.26373,809.0842,810.696
805.05493,805.8608,811.9048,814.3223
802.23444,805.4579,805.4579,800.2198
809.4872,802.6374,803.8461,791.75824
809.0842,806.26373,811.0989,805.8608
804.65204,804.65204,808.2784,813.1135
810.696,796.5934,805.05493,815.9341
811.0989,797.3993,805.8608,809.89014
811.50183,802.23444,806.26373,800.2198
816.337,803.0403,804.65204,809.89014
811.50183,807.8755,805.4579,823.9927
807.8755,812.3077,809.0842,821.1722
810.696,805.4579,810.293,820.3663
805.05493,804.2491,813.91943,813.5165
812.71063,805.05493,813.5165,814.7253
822.381,808.68134,809.4872,821.5751
817.1429,812.71063,808.68134,826.4103
813.1135,811.50183,808.2784,812.71063
807.0696,809.89014,807.8755,804.2491
806.26373,807.8755,805.05493,809.0842
806.6667,808.2784,801.8315,813.91943
812.71063,807.8755,805.4579,815.5311
814.3223,805.05493,806.26373,807.8755
809.0842,803.8461,800.6227,799.41394
805.05493,802.23444,796.99634,790.54944
805.05493,798.20514,802.6374,794.17584
809.4872,803.8461,800.2198,803.0403
807.0696,806.26373,799.41394,805.05493
805.4579,812.71063,805.05493,802.23444
806.26373,811.50183,801.02563,810.696
804.2491,798.60803,801.4286,815.12823
803.8461,802.23444,808.2784,822.7839
792.5641,808.2784,806.6667,819.15753
792.5641,803.44324,808.2784,806.26373
801.8315,797.3993,806.26373,808.2784
808.68134,799.011,809.0842,816.337
813.91943,806.6667,809.4872,814.3223
803.8461,809.0842,807.0696,811.9048
795.78754,807.0696,805.8608,805.05493
804.2491,805.4579,803.8461,803.0403
808.68134,809.89014,805.8608,800.6227
799.81683,807.0696,801.4286,807.8755
786.9231,800.6227,797.3993,809.0842
791.3553,806.6667,801.4286,799.41394
805.05493,800.2198,805.05493,807.47253
803.0403,795.78754,801.8315,809.89014
803.44324,803.0403,804.65204,808.68134
805.8608,809.89014,807.47253,807.8755
800.2198,801.8315,799.81683,789.34064
798.60803,809.89014,802.6374,798.20514
798.20514,801.4286,799.81683,797.8022
786.52014,805.8608,800.2198,803.8461
792.1612,809.0842,802.23444,810.696
797.3993,807.47253,801.8315,803.8461
801.02563,811.50183,799.011,787.72894
811.50183,815.12823,801.8315,792.1612
805.8608,803.8461,798.60803,804.65204
798.60803,804.65204,796.1905,804.2491
797.8022,807.8755,798.20514,796.5934
796.5934,802.23444,801.02563,788.93774
800.2198,804.65204,801.8315,788.1319
802.6374,806.26373,803.8461,799.81683
805.4579,806.26373,810.293,808.68134
805.05493,805.05493,803.44324,807.8755
806.6667,808.2784,799.41394,801.02563
804.65204,802.6374,803.8461,799.81683
807.0696,801.02563,803.0403,810.696
809.4872,801.4286,799.81683,813.5165
805.4579,801.8315,796.99634,804.2491
804.65204,806.6667,797.3993,799.41394
804.65204,802.6374,796.1905,802.6374
803.44324,803.0403,803.0403,803.0403
794.57874,803.0403,805.8608,788.1319
790.14655,802.6374,806.6667,785.31134
811.9048,798.60803,809.4872,803.44324
818.7546,796.99634,807.47253,801.02563
804.2491,807.47253,807.0696,813.1135
805.05493,804.2491,807.8755,805.4579
801.4286,798.20514,805.8608,804.2491
813.91943,797.8022,800.6227,785.31134
809.0842,789.7436,800.2198,788.93774
812.3077,807.47253,809.4872,805.8608
809.0842,805.4579,808.68134,809.0842
802.6374,805.4579,811.50183,798.20514
803.8461,808.68134,810.696,796.1905
802.23444,808.68134,810.696,796.5934
798.60803,811.0989,816.7399,803.0403
801.8315,806.26373,813.91943,813.5165
808.2784,805.8608,809.0842,805.8608
809.4872,804.65204,808.2784,799.41394
806.26373,800.6227,803.0403,794.9817
807.8755,804.65204,805.8608,796.5934
807.8755,805.05493,803.44324,805.8608
811.50183,805.4579,799.41394,809.0842
813.91943,804.2491,799.41394,801.4286
811.9048,806.6667,801.4286,791.3553
806.6667,805.05493,802.6374,793.7729
804.65204,806.6667,802.23444,805.4579
802.6374,805.8608,800.2198,799.81683
802.6374,801.02563,802.23444,793.36993
799.81683,805.4579,804.65204,791.3553
792.1612,802.6374,803.0403,792.1612
794.57874,793.7729,797.8022,801.8315
805.05493,802.6374,801.8315,807.0696
807.47253,813.1135,807.47253,803.0403
809.4872,806.6667,801.4286,788.1319
807.0696,805.8608,797.8022,781.685
802.6374,806.26373,804.2491,796.99634
809.0842,807.47253,803.44324,811.0989
811.50183,808.2784,799.41394,808.68134
811.50183,809.4872,796.99634,796.1905
809.0842,808.68134,796.99634,792.1612
806.26373,806.26373,796.5934,807.0696
801.4286,806.26373,792.1612,816.337
797.8022,803.8461,794.9817,808.2784
800.2198,801.02563,798.60803,795.78754
807.47253,808.68134,794.57874,793.7729
815.5311,811.0989,794.17584,800.6227
814.7253,809.89014,793.7729,807.0696
805.8608,807.47253,800.6227,809.4872
805.05493,803.8461,806.6667,802.6374
807.0696,809.0842,809.4872,809.0842
801.4286,811.0989,807.0696,803.44324
814.7253,808.68134,805.05493,800.2198
810.696,805.4579,800.6227,794.9817
805.4579,808.68134,803.8461,804.2491
799.011,801.02563,797.3993,790.9524
802.6374,803.44324,800.6227,800.2198
804.2491,805.8608,807.8755,811.9048
803.8461,805.4579,802.6374,805.4579
815.12823,813.5165,805.05493,802.6374
814.3223,811.50183,807.8755,794.57874
801.4286,808.2784,806.26373,797.3993
806.6667,808.68134,812.3077,793.7729
802.23444,809.89014,810.696,805.05493
808.68134,809.89014,802.6374,798.60803
799.41394,811.0989,805.05493,803.8461
805.8608,803.8461,804.65204,797.8022
816.337,810.696,801.02563,805.8608
807.47253,808.68134,799.011,801.8315
804.2491,804.65204,800.2198,801.02563
806.26373,807.0696,801.02563,796.5934
817.1429,809.89014,805.05493,807.0696
802.6374,808.2784,800.2198,804.65204
812.3077,807.47253,806.6667,801.4286
804.65204,808.68134,807.0696,808.68134
802.6374,806.26373,803.8461,807.47253
806.26373,807.0696,806.6667,796.99634
807.8755,803.44324,806.26373,796.1905
794.9817,804.65204,805.05493,801.02563
807.8755,801.4286,803.0403,797.8022
798.60803,803.44324,804.2491,799.81683
809.4872,805.05493,800.2198,803.8461
805.05493,803.8461,801.8315,804.65204
802.23444,799.41394,801.4286,804.65204
799.011,793.36993,806.6667,796.5934
801.4286,801.02563,804.2491,796.5934
802.6374,800.6227,808.68134,801.8315
797.8022,796.99634,811.9048,803.44324
798.60803,796.99634,807.47253,796.5934
794.17584,798.60803,813.1135,798.20514
797.8022,799.011,812.3077,789.34064
794.9817,795.38464,809.0842,781.685
796.99634,795.38464,803.44324,788.93774
799.81683,801.8315,800.2198,797.8022
794.9817,800.6227,805.4579,793.7729
796.5934,800.2198,807.47253,787.72894
804.2491,803.8461,810.696,791.75824
801.4286,803.8461,810.696,796.5934
796.99634,805.05493,805.4579,801.4286
809.0842,800.2198,807.8755,804.2491
811.0989,799.41394,811.9048,793.7729
805.4579,808.68134,814.3223,793.7729
797.3993,811.0989,814.3223,804.65204
788.93774,807.0696,810.293,813.91943
802.6374,807.0696,809.0842,819.9634
807.0696,807.47253,813.1135,812.71063
800.6227,808.68134,810.293,798.60803
802.6374,808.68134,805.05493,801.4286
808.68134,807.0696,811.50183,814.3223
813.1135,803.0403,815.12823,817.1429
802.23444,804.2491,811.0989,811.0989
802.6374,810.696,801.02563,797.3993
815.12823,810.293,796.5934,801.02563
813.5165,810.696,799.81683,811.0989
801.8315,817.1429,800.2198,804.65204
799.81683,810.696,798.60803,799.41394
807.47253,801.4286,797.3993,794.57874
814.3223,806.26373,800.6227,796.99634
807.8755,805.4579,802.23444,808.68134
798.60803,805.05493,800.6227,810.696
800.6227,808.2784,801.8315,805.05493
807.8755,809.0842,799.81683,799.41394
805.8608,806.6667,800.2198,796.1905
803.8461,807.0696,800.2198,804.65204
809.89014,808.2784,792.1612,810.696
803.8461,805.4579,796.99634,808.68134
797.3993,804.65204,801.4286,807.47253
795.78754,803.8461,796.5934,803.44324
800.6227,802.6374,799.81683,813.5165
805.4579,801.8315,799.81683,813.91943
803.8461,801.4286,793.7729,804.2491
797.8022,802.23444,797.8022,800.6227
796.1905,807.0696,800.2198,798.20514
805.4579,809.0842,802.6374,810.293
809.0842,807.8755,805.4579,810.293
799.41394,807.8755,805.4579,808.68134
803.8461,813.5165,809.4872,809.0842
818.3516,815.5311,810.293,797.8022
809.0842,805.4579,803.44324,801.4286
793.7729,801.02563,802.23444,811.0989
796.1905,806.26373,803.0403,806.6667
797.8022,812.71063,801.02563,796.99634
801.4286,808.68134,801.02563,791.3553
803.0403,801.4286,803.8461,798.20514
797.8022,804.2491,806.6667,804.65204
800.2198,808.68134,806.26373,803.0403
799.81683,807.47253,802.6374,796.99634
795.78754,804.65204,801.02563,792.1612
794.17584,803.8461,804.2491,794.57874
800.6227,806.26373,807.0696,803.0403
804.65204,804.2491,807.0696,801.4286
800.2198,801.4286,796.5934,788.93774
801.4286,803.44324,799.41394,791.75824
799.41394,802.6374,803.44324,803.0403
801.8315,801.4286,804.65204,795.38464
799.81683,807.47253,798.20514,805.05493
804.65204,813.1135,797.8022,795.78754
809.89014,800.2198,801.02563,789.34064
804.65204,796.5934,805.8608,796.1905
805.4579,804.65204,808.68134,799.41394
808.2784,810.293,801.4286,794.17584
805.8608,811.9048,796.1905,790.14655
804.65204,813.91943,794.17584,793.36993
805.4579,809.4872,799.011,786.9231
804.2491,809.0842,804.65204,799.41394
808.68134,807.0696,808.68134,813.1135
805.4579,808.2784,812.71063,808.68134
810.696,799.41394,803.8461,799.81683
804.65204,795.78754,804.65204,786.1172
808.2784,800.2198,803.0403,799.41394
813.91943,808.68134,803.8461,807.0696
808.2784,804.2491,806.6667,801.4286
805.8608,799.81683,802.6374,792.1612
810.696,803.44324,800.2198,788.5348
808.2784,802.6374,801.8315,796.1905
804.2491,799.41394,800.6227,801.8315
801.02563,796.99634,800.2198,803.0403
800.2198,799.81683,799.41394,791.3553
810.293,800.2198,803.8461,792.96704
807.8755,800.2198,807.47253,802.23444
798.20514,811.50183,808.68134,803.44324
797.8022,815.5311,812.3077,810.293
801.4286,806.26373,811.50183,804.2491
800.2198,804.2491,801.8315,794.9817
804.65204,801.02563,800.2198,797.8022
799.011,802.6374,795.78754,799.41394
802.23444,802.23444,796.5934,802.23444
808.2784,796.1905,805.4579,801.02563
799.41394,796.5934,800.2198,794.9817
794.9817,801.02563,802.6374,799.81683
800.2198,804.65204,809.89014,807.8755
805.4579,809.4872,806.26373,815.9341
803.0403,811.9048,805.4579,809.89014
804.65204,806.6667,803.8461,801.02563
805.4579,807.0696,801.02563,798.60803
799.81683,805.4579,797.8022,804.2491
799.41394,805.05493,800.2198,811.50183
807.47253,811.0989,802.23444,805.4579
808.68134,810.696,801.02563,805.4579
803.8461,801.02563,799.41394,804.65204
799.41394,800.2198,801.8315,799.81683
790.9524,805.05493,801.8315,803.0403
795.78754,802.6374,803.8461,800.6227
803.0403,801.4286,808.2784,795.78754
801.4286,807.0696,807.8755,793.7729
803.44324,807.47253,808.68134,799.41394
799.81683,792.5641,801.8315,792.1612
799.41394,801.02563,798.60803,791.75824
803.0403,801.8315,800.2198,801.02563
809.89014,803.8461,805.4579,803.8461
799.81683,799.41394,807.47253,802.23444
788.1319,792.5641,800.6227,796.1905
787.326,796.5934,804.2491,796.99634
808.2784,808.2784,799.81683,801.02563
800.2198,805.05493,800.6227,797.3993
798.60803,804.65204,804.65204,797.3993
804.2491,807.47253,808.68134,810.293
808.2784,807.0696,809.4872,809.89014
803.0403,807.8755,807.0696,796.99634
800.2198,810.293,807.47253,793.7729
805.8608,807.0696,811.9048,802.23444
808.2784,813.5165,807.0696,812.71063
811.0989,815.9341,800.2198,805.8608
817.9487,805.4579,802.6374,803.8461
809.4872,805.8608,802.23444,802.6374
792.1612,810.293,806.6667,799.81683
798.20514,811.50183,806.6667,807.8755
802.6374,806.6667,805.05493,806.6667
798.60803,806.26373,805.4579,795.78754
805.05493,806.6667,805.05493,796.1905
808.2784,801.8315,802.6374,801.02563
809.4872,802.23444,803.44324,808.2784
809.4872,807.8755,809.89014,812.3077
799.41394,810.293,811.0989,805.4579
808.2784,809.4872,805.4579,798.20514
814.3223,797.8022,807.0696,793.36993
802.6374,794.57874,810.696,802.6374
805.05493,802.6374,811.0989,809.0842
804.65204,801.4286,807.47253,795.38464
802.6374,798.60803,806.26373,783.69965
811.50183,799.011,809.89014,787.326
817.9487,801.4286,811.9048,801.02563
803.8461,801.02563,804.65204,806.6667
809.4872,803.0403,805.4579,802.23444
812.3077,806.6667,809.4872,807.47253
811.9048,805.8608,803.8461,793.36993
803.0403,797.8022,800.2198,801.02563
810.293,801.02563,806.6667,813.1135
814.7253,805.4579,807.0696,807.47253
808.68134,807.47253,803.0403,803.0403
807.0696,807.0696,803.44324,801.8315
807.0696,805.05493,801.8315,797.8022
803.8461,804.2491,802.23444,798.60803
800.6227,813.5165,802.23444,801.02563
804.2491,818.7546,805.05493,800.2198
811.0989,808.68134,810.696,796.5934
808.2784,812.3077,812.71063,805.4579
807.8755,811.0989,810.696,817.9487
799.011,806.6667,806.26373,808.2784
792.96704,805.8608,805.8608,793.36993
791.75824,805.8608,803.8461,790.14655
797.8022,807.0696,801.8315,795.78754
805.05493,809.0842,809.0842,808.2784
802.23444,809.4872,807.0696,807.0696
800.2198,810.293,801.02563,798.60803
806.26373,807.8755,800.2198,803.44324
801.8315,806.26373,802.23444,813.1135
792.96704,807.47253,801.8315,809.89014
799.41394,811.50183,801.8315,807.47253
806.26373,811.0989,803.0403,807.47253
798.20514,808.2784,803.8461,801.02563
813.1135,815.5311,809.4872,811.50183
799.011,811.0989,806.6667,801.02563
807.47253,813.1135,807.47253,806.6667
804.2491,811.9048,803.8461,799.41394
813.5165,809.0842,809.0842,799.011
805.05493,807.8755,809.89014,802.23444
796.5934,803.8461,808.2784,809.89014
799.011,806.6667,803.0403,808.2784
804.65204,807.47253,805.8608,804.2491
806.6667,804.65204,810.293,801.02563
807.8755,805.05493,809.4872,796.1905
806.26373,804.65204,806.26373,799.81683
801.4286,807.8755,798.20514,809.4872
798.20514,810.696,799.011,807.47253
804.65204,808.2784,799.41394,795.78754
808.68134,807.8755,797.8022,795.38464
811.0989,813.91943,798.20514,798.60803
815.5311,807.0696,794.9817,795.38464
813.5165,802.6374,798.20514,793.7729
803.44324,805.05493,796.99634,788.93774
799.81683,805.8608,792.96704,789.34064
805.8608,806.6667,797.3993,799.011
807.0696,811.50183,804.2491,803.0403
810.293,807.47253,805.05493,804.65204
801.8315,801.02563,795.78754,802.6374
789.34064,803.0403,799.011,797.8022
788.93774,805.05493,803.44324,798.60803
789.34064,804.65204,799.41394,801.4286
790.9524,806.6667,802.23444,801.02563
800.2198,805.4579,802.23444,796.1905
803.8461,802.6374,798.20514,790.54944
806.26373,804.65204,799.81683,803.8461
803.8461,812.71063,801.02563,806.6667
798.20514,812.3077,800.2198,793.7729
801.02563,811.50183,801.8315,788.93774
797.3993,809.0842,804.65204,786.1172
797.3993,800.2198,807.0696,792.1612
801.02563,801.8315,806.26373,799.41394
795.78754,807.0696,805.4579,803.0403
796.99634,809.0842,805.4579,795.78754
798.20514,806.6667,798.20514,786.9231
803.8461,805.8608,796.1905,797.3993
803.8461,802.23444,801.02563,805.05493
802.6374,799.81683,800.6227,798.60803
804.65204,807.47253,800.6227,795.38464
796.5934,804.2491,802.6374,788.5348
799.81683,797.3993,803.44324,793.7729
800.6227,802.23444,805.8608,808.2784
800.6227,798.60803,801.8315,801.8315
799.011,796.99634,802.6374,788.1319
803.44324,796.5934,803.44324,787.326
801.4286,799.41394,803.44324,784.5055
796.1905,797.3993,802.6374,792.96704
799.81683,799.81683,805.4579,801.02563
793.36993,798.20514,800.6227,785.7143
797.8022,800.6227,804.2491,795.38464
803.8461,793.7729,809.89014,806.26373
794.17584,794.9817,805.8608,789.34064
810.293,799.41394,808.68134,815.9341
810.696,803.0403,806.26373,810.293
805.4579,794.57874,799.41394,805.8608
806.6667,797.8022,796.5934,802.6374
806.26373,812.71063,801.8315,809.4872
796.5934,809.89014,806.6667,811.50183
799.011,804.2491,805.8608,801.4286
799.81683,808.68134,803.8461,799.011
796.1905,805.05493,806.6667,795.38464
795.38464,796.99634,808.2784,786.9231
800.6227,798.60803,807.47253,794.9817
800.6227,803.8461,804.65204,792.1612
794.9817,804.2491,803.44324,783.69965
792.96704,801.02563,801.02563,778.86444
781.28204,798.60803,802.23444,777.6557
780.4762,805.4579,805.8608,786.1172
784.10254,806.26373,802.6374,784.90845
774.83514,805.8608,798.60803,773.22345
776.04395,812.3077,797.8022,768.3883
784.10254,807.47253,800.2198,780.07324
780.07324,804.2491,798.60803,767.98535
782.8938,800.6227,800.2198,769.59705
784.90845,810.696,803.44324,774.83514
786.9231,806.26373,798.60803,778.46155
782.0879,803.44324,791.3553,774.43225
778.46155,801.4286,792.96704,772.8205
789.7436,814.7253,796.1905,787.326
779.2674,800.6227,792.1612,772.01465
789.34064,809.0842,806.26373,786.9231
786.9231,808.68134,793.7729,781.685
787.72894,805.05493,796.1905,783.2967
796.99634,808.2784,794.9817,786.52014
795.38464,811.50183,795.38464,778.46155
791.75824,811.50183,802.6374,774.83514
790.9524,804.65204,802.23444,781.685
784.10254,800.6227,800.6227,790.54944
779.2674,808.2784,800.6227,784.90845
784.90845,805.05493,801.4286,782.0879
786.52014,800.2198,800.6227,780.87915
783.2967,805.05493,799.011,780.4762
778.0586,799.41394,800.6227,779.2674
775.64105,799.011,809.4872,781.28204
778.46155,804.65204,810.696,782.0879
779.67035,803.44324,805.8608,777.6557
788.1319,802.6374,805.4579,782.49084
794.57874,804.2491,807.0696,793.36993
795.38464,803.0403,807.8755,794.9817
800.2198,804.65204,810.293,790.54944
794.17584,808.68134,809.89014,780.87915
788.5348,799.011,807.0696,780.4762
789.7436,795.38464,807.8755,787.326
792.96704,799.41394,809.0842,795.78754
794.9817,800.6227,805.8608,801.8315
787.72894,801.8315,806.6667,792.1612
792.1612,796.99634,807.8755,789.34064
799.011,790.54944,806.26373,795.78754
786.9231,794.9817,805.4579,803.8461
787.326,799.41394,803.44324,790.9524
796.1905,802.6374,805.05493,785.7143
789.7436,790.54944,807.0696,804.2491
793.36993,797.3993,803.44324,801.4286
801.8315,800.2198,804.65204,792.96704
787.72894,800.6227,802.6374,796.1905
795.38464,800.2198,802.23444,793.7729
795.38464,798.20514,803.44324,792.1612
792.96704,798.20514,801.8315,792.1612
801.4286,800.2198,803.44324,801.02563
801.8315,799.41394,803.44324,801.4286
798.20514,799.81683,801.8315,803.0403
801.8315,804.2491,803.8461,805.05493
806.6667,799.011,804.65204,801.02563
812.71063,804.2491,807.0696,808.68134
816.7399,814.3223,810.696,815.5311
810.696,813.5165,804.65204,810.696
801.02563,809.4872,799.81683,804.65204
805.8608,805.05493,802.23444,808.68134
810.696,807.8755,804.2491,813.1135
802.23444,807.8755,808.2784,808.68134
804.65204,800.2198,805.4579,802.23444
811.9048,802.6374,804.2491,803.8461
808.2784,807.47253,805.8608,805.8608
804.65204,808.68134,803.0403,812.3077
807.0696,811.9048,805.05493,815.9341
809.89014,807.8755,807.0696,813.1135
811.0989,807.8755,803.0403,813.1135
809.89014,806.26373,798.60803,813.5165
811.0989,801.02563,800.6227,817.1429
805.8608,807.0696,804.2491,819.15753
803.0403,807.8755,805.4579,814.7253
807.47253,805.05493,801.8315,809.4872
815.5311,811.0989,797.8022,811.0989
814.3223,810.696,799.011,825.2015
805.8608,812.3077,797.8022,819.5604
809.4872,810.696,799.81683,812.71063
816.337,803.44324,799.81683,823.1868
807.47253,801.4286,795.78754,809.4872
807.8755,803.0403,799.011,813.91943
805.8608,805.8608,800.2198,822.381
803.8461,805.05493,797.3993,805.4579
810.696,803.0403,799.41394,803.0403
812.71063,801.02563,800.6227,803.44324
813.91943,804.2491,799.41394,806.6667
811.0989,809.89014,804.2491,815.5311
812.3077,806.26373,803.8461,813.5165
814.7253,803.8461,806.26373,813.1135
809.4872,806.6667,808.68134,811.9048
805.4579,809.4872,800.2198,809.89014
807.8755,809.89014,802.23444,810.293
813.91943,807.0696,801.8315,804.2491
815.12823,807.8755,805.05493,813.5165
813.1135,805.05493,800.6227,802.23444
806.6667,804.65204,800.2198,800.6227
798.20514,805.4579,798.20514,805.05493
807.47253,799.011,799.81683,812.71063
807.47253,805.4579,801.8315,806.6667
807.47253,808.68134,801.4286,800.2198
811.50183,802.6374,804.2491,805.05493
801.8315,807.0696,801.4286,812.3077
808.2784,805.4579,806.26373,818.3516
808.68134,807.0696,803.8461,796.5934
803.44324,807.8755,800.6227,818.7546
818.3516,803.44324,801.8315,813.91943
822.7839,803.0403,803.44324,809.0842
814.7253,804.2491,805.05493,811.9048
815.9341,805.8608,803.8461,796.1905
807.0696,803.44324,807.47253,806.26373
801.02563,804.2491,808.68134,808.68134
797.8022,800.6227,807.8755,813.5165
805.05493,800.2198,811.50183,805.8608
803.8461,803.0403,813.1135,796.5934
801.02563,798.60803,807.47253,813.91943
794.57874,803.8461,808.68134,790.9524
797.8022,801.8315,803.44324,791.75824
799.81683,801.8315,803.8461,793.36993
792.96704,795.38464,805.4579,790.54944
794.9817,795.78754,804.65204,791.75824
800.2198,799.011,802.23444,791.75824
800.6227,796.5934,800.2198,797.3993
805.05493,793.7729,800.2198,804.2491
808.68134,795.78754,800.2198,801.02563
799.81683,801.4286,803.0403,795.38464
798.20514,810.293,809.0842,790.9524
809.4872,811.9048,802.6374,802.23444
811.0989,800.6227,801.02563,812.71063
803.8461,795.78754,804.2491,808.2784
808.2784,798.60803,800.6227,811.50183
801.4286,800.2198,804.65204,804.2491
796.1905,794.9817,803.44324,800.2198
811.50183,800.2198,806.6667,816.337
806.6667,794.17584,803.8461,813.1135
812.3077,801.4286,802.23444,804.2491
809.89014,801.4286,802.23444,794.9817
807.8755,800.6227,808.2784,797.3993
806.26373,799.41394,806.6667,804.65204
805.4579,806.26373,812.3077,811.50183
810.696,807.47253,818.7546,804.65204
817.9487,804.65204,813.5165,792.5641
805.8608,806.6667,813.91943,797.3993
803.44324,802.23444,815.12823,807.0696
804.2491,799.41394,808.2784,807.47253
807.8755,805.4579,809.89014,810.696
816.7399,812.3077,815.5311,811.50183
809.89014,813.91943,813.91943,803.8461
810.293,806.6667,812.3077,807.0696
814.7253,804.2491,812.3077,807.8755
814.7253,811.0989,810.293,801.8315
804.2491,804.2491,807.0696,799.011
800.6227,800.2198,803.44324,794.9817
805.05493,807.47253,811.9048,803.8461
804.65204,805.8608,815.9341,813.91943
800.2198,803.0403,805.8608,799.81683
805.4579,803.0403,803.0403,787.72894
808.68134,802.23444,804.2491,787.72894
796.1905,802.6374,806.26373,792.96704
790.54944,808.2784,802.23444,799.011
792.1612,805.05493,803.44324,792.1612
793.7729,802.23444,812.3077,785.7143
792.5641,805.8608,807.8755,789.7436
799.81683,807.8755,807.0696,801.02563
806.26373,807.47253,809.89014,811.50183
809.89014,808.68134,807.0696,812.3077
807.8755,812.71063,805.05493,802.6374
804.65204,807.8755,806.6667,796.5934
812.3077,809.89014,808.68134,811.9048
819.5604,810.696,809.4872,820.3663
817.5458,805.8608,810.696,819.15753
821.1722,803.0403,809.0842,808.68134
808.2784,805.8608,808.68134,800.2198
801.8315,808.2784,811.9048,809.0842
809.89014,807.8755,812.71063,811.50183
803.8461,808.2784,809.89014,810.696
798.60803,801.8315,805.8608,804.65204
799.41394,798.60803,802.23444,784.5055
806.6667,804.65204,803.8461,795.38464
818.3516,812.3077,810.293,819.5604
817.1429,810.293,808.68134,820.7692
812.3077,801.8315,809.4872,813.1135
809.4872,803.0403,811.50183,797.8022
810.293,804.2491,807.47253,804.65204
808.68134,807.47253,808.68134,818.3516
805.8608,812.71063,807.8755,811.0989
807.8755,807.0696,804.2491,799.41394
813.5165,804.65204,805.05493,795.78754
812.3077,807.0696,801.02563,802.6374
801.8315,805.05493,800.2198,806.6667
803.44324,801.4286,802.6374,803.8461
806.26373,801.02563,803.44324,798.20514
803.44324,802.23444,804.65204,792.1612
805.4579,810.293,805.8608,798.60803
804.2491,811.9048,805.05493,806.26373
809.89014,811.50183,801.02563,804.65204
814.3223,813.1135,803.44324,801.8315
810.696,810.696,805.8608,798.20514
805.4579,810.293,801.8315,794.9817
801.8315,808.2784,798.20514,795.38464
807.0696,807.8755,796.1905,798.60803
796.1905,805.05493,795.78754,791.75824
794.57874,801.8315,790.54944,784.10254
803.0403,801.02563,789.34064,788.93774
808.2784,801.02563,793.36993,795.78754
804.2491,808.2784,796.5934,803.44324
800.6227,813.91943,800.2198,800.2198
810.293,809.4872,798.20514,790.14655
806.26373,801.8315,794.9817,790.14655
799.81683,799.81683,792.96704,793.7729
801.4286,801.02563,795.38464,801.02563
804.2491,804.65204,797.8022,803.0403
804.65204,797.8022,799.41394,792.5641
799.81683,801.02563,803.0403,794.17584
801.4286,809.89014,803.0403,811.9048
805.05493,803.44324,805.4579,811.50183
799.41394,799.41394,804.2491,801.02563
796.99634,800.2198,800.6227,802.23444
798.60803,804.2491,801.8315,800.6227
798.60803,797.8022,803.8461,795.78754
796.1905,797.8022,805.4579,800.2198
794.17584,798.20514,804.65204,801.02563
788.93774,797.3993,807.0696,801.02563
791.3553,799.81683,806.6667,795.38464
794.9817,803.44324,806.26373,806.6667
799.81683,803.44324,804.2491,805.05493
794.57874,800.2198,803.44324,794.17584
807.0696,806.26373,805.8608,800.2198
788.93774,800.6227,802.23444,800.6227
796.1905,803.44324,806.26373,796.99634
803.44324,806.26373,800.2198,810.696
810.293,806.26373,803.8461,805.05493
805.8608,806.26373,803.0403,796.1905
802.6374,807.8755,802.6374,802.23444
803.0403,799.41394,805.4579,806.6667
805.4579,801.8315,801.02563,809.89014
803.44324,807.47253,799.41394,806.26373
799.011,808.2784,795.78754,794.17584
798.20514,804.65204,794.57874,794.9817
803.0403,803.44324,799.81683,805.05493
797.8022,805.4579,800.6227,811.50183
799.81683,805.05493,804.65204,807.0696
800.2198,809.0842,800.6227,808.2784
807.0696,803.44324,797.8022,800.6227
803.8461,800.6227,793.36993,799.41394
813.91943,812.3077,794.57874,808.68134
807.8755,806.26373,794.57874,809.0842
801.4286,812.3077,796.5934,803.44324
805.8608,805.8608,797.3993,793.36993
808.2784,803.8461,798.20514,794.9817
796.5934,809.4872,794.57874,799.81683
807.8755,798.20514,792.5641,802.6374
805.8608,805.05493,795.38464,799.81683
800.2198,799.81683,792.1612,806.6667
811.0989,802.23444,797.8022,802.23444
810.293,801.8315,796.99634,804.65204
810.293,807.47253,801.4286,806.26373
805.8608,805.4579,801.8315,811.9048
802.6374,802.23444,797.8022,803.44324
797.8022,803.44324,794.57874,790.14655
798.20514,804.2491,794.9817,792.5641
813.5165,804.2491,803.0403,804.65204
815.12823,801.4286,805.4579,806.6667
810.293,799.011,803.8461,800.2198
810.696,802.6374,803.0403,794.17584
809.0842,805.05493,799.41394,792.96704
808.2784,805.4579,806.26373,800.6227
811.9048,803.0403,809.89014,806.26373
808.2784,799.011,805.8608,804.2491
802.23444,805.4579,804.65204,791.75824
794.9817,806.6667,811.9048,799.011
800.2198,803.44324,811.50183,803.44324
797.8022,803.44324,808.2784,799.81683
799.011,799.41394,803.8461,796.1905
801.02563,804.65204,801.4286,792.1612
808.2784,807.8755,803.8461,801.4286
809.89014,807.8755,805.4579,815.12823
800.6227,811.0989,803.44324,816.337
795.38464,811.50183,807.0696,786.9231
796.5934,811.50183,801.8315,809.89014
804.2491,805.4579,804.2491,803.0403
807.0696,802.6374,807.0696,809.0842
800.2198,801.4286,803.8461,810.696
800.6227,798.60803,800.6227,804.2491
805.8608,803.8461,805.8608,798.20514
804.65204,806.6667,802.23444,799.011
798.60803,808.68134,798.60803,796.99634
798.60803,808.2784,802.6374,804.65204
803.8461,803.8461,804.65204,802.23444
802.23444,805.8608,800.6227,791.75824
803.44324,803.44324,795.38464,790.14655
799.81683,800.2198,794.17584,798.60803
796.5934,802.23444,798.20514,807.0696
798.20514,802.6374,797.3993,800.2198
805.4579,805.05493,794.57874,792.96704
808.68134,803.44324,801.02563,792.5641
802.23444,802.23444,804.2491,805.4579
797.3993,803.0403,799.81683,793.36993
809.89014,809.4872,802.23444,789.7436
805.05493,807.0696,803.8461,808.68134
809.4872,809.89014,805.05493,801.8315
802.23444,805.8608,805.8608,799.41394
801.8315,805.4579,805.05493,809.0842
811.50183,805.8608,811.0989,812.3077
802.23444,803.8461,808.68134,795.38464
787.72894,800.6227,806.26373,784.10254
796.1905,803.0403,807.8755,786.1172
792.1612,800.6227,807.47253,788.5348
788.93774,804.2491,811.50183,792.5641
793.7729,812.71063,814.3223,784.10254
795.38464,806.6667,812.3077,773.22345
796.1905,807.47253,803.44324,779.67035
794.17584,802.23444,807.0696,770.80585
788.93774,809.89014,815.12823,790.54944
791.3553,809.89014,815.5311,777.6557
788.5348,810.696,806.6667,794.57874
790.14655,807.8755,808.2784,781.685
797.3993,808.68134,805.4579,789.7436
787.326,810.696,801.4286,786.52014
782.8938,809.89014,801.4286,780.4762
785.31134,812.71063,807.47253,781.28204
786.1172,818.7546,809.4872,784.10254
796.5934,817.5458,808.2784,796.99634
787.326,818.3516,807.0696,792.1612
778.0586,816.7399,804.2491,781.685
786.52014,815.5311,802.23444,772.8205
795.38464,815.12823,799.011,760.7326
794.9817,813.91943,799.011,775.2381
785.7143,818.3516,799.41394,783.69965
784.10254,818.3516,796.5934,774.0293
786.52014,812.71063,796.99634,767.98535
777.6557,815.9341,794.57874,761.13556
797.8022,818.7546,794.17584,793.7729
783.2967,815.12823,794.57874,771.6117
797.8022,818.7546,794.9817,795.38464
796.1905,809.4872,797.3993,779.2674
788.1319,811.50183,798.60803,771.6117
784.90845,814.7253,800.2198,775.64105
789.7436,815.12823,803.44324,786.1172
795.78754,809.4872,809.89014,800.2198
792.1612,805.8608,804.2491,793.36993
788.93774,809.0842,799.011,778.86444
793.7729,809.0842,806.6667,782.8938
798.60803,811.0989,814.7253,799.011
794.17584,811.50183,809.0842,798.60803
785.7143,809.4872,802.23444,786.9231
791.3553,807.0696,805.4579,788.1319
805.8608,803.44324,808.2784,797.8022
801.02563,803.44324,810.293,807.0696
794.17584,803.0403,810.293,802.6374
796.99634,799.81683,804.65204,786.1172
794.17584,801.4286,800.2198,777.6557
786.9231,807.47253,797.3993,773.6264
796.1905,806.26373,802.6374,792.96704
804.2491,805.05493,808.2784,800.2198
790.54944,795.78754,799.81683,781.685
790.54944,791.75824,796.1905,783.69965
788.5348,800.6227,794.57874,781.685
790.14655,807.8755,796.5934,784.90845
794.17584,807.8755,800.6227,792.1612
793.36993,806.26373,799.41394,792.5641
798.60803,807.47253,799.011,787.72894
793.7729,806.26373,796.99634,778.46155
788.93774,806.6667,796.5934,772.01465
792.96704,807.0696,796.99634,784.10254
800.2198,807.8755,794.9817,797.8022
810.293,804.65204,799.41394,790.14655
805.4579,807.8755,806.6667,779.2674
784.5055,810.696,801.4286,775.2381
774.43225,809.89014,804.65204,778.0586
784.90845,807.47253,805.8608,788.93774
787.326,804.65204,795.78754,791.3553
780.07324,809.0842,794.9817,780.07324
784.10254,809.0842,798.60803,774.83514
799.81683,805.4579,801.8315,788.5348
795.78754,803.44324,803.0403,794.9817
792.1612,804.2491,803.8461,794.9817
790.54944,807.8755,803.8461,786.9231
787.72894,802.6374,803.0403,784.5055
790.9524,802.6374,806.6667,789.34064
803.0403,808.2784,806.6667,795.78754
801.4286,807.47253,808.2784,793.36993
788.5348,806.6667,806.6667,776.04395
788.93774,804.65204,809.0842,780.4762
793.36993,806.6667,812.71063,799.81683
796.5934,805.8608,812.3077,799.011
791.75824,801.02563,808.68134,790.14655
781.28204,804.2491,803.8461,776.4469
788.1319,801.8315,807.47253,780.07324
803.44324,806.26373,807.8755,804.65204
798.20514,811.9048,803.44324,796.99634
785.7143,809.0842,801.4286,785.31134
787.326,807.47253,801.8315,778.0586
796.1905,810.293,800.6227,787.72894
797.8022,806.6667,799.81683,799.81683
792.1612,797.8022,801.4286,796.99634
785.7143,803.8461,801.02563,784.90845
783.69965,807.0696,797.8022,776.4469
788.93774,800.6227,801.8315,792.5641
789.34064,806.26373,805.4579,804.2491
789.34064,805.8608,807.8755,788.93774
790.54944,807.0696,804.2491,778.86444
785.31134,807.8755,799.81683,779.2674
778.86444,807.0696,797.8022,780.07324
790.9524,814.7253,801.02563,784.90845
790.9524,823.1868,801.02563,790.54944
784.10254,811.50183,797.3993,788.93774
797.3993,800.2198,803.44324,788.93774
797.8022,801.02563,802.23444,782.8938
778.46155,803.44324,798.20514,774.43225
772.4176,804.65204,801.8315,780.87915
779.2674,803.0403,794.57874,780.07324
789.7436,802.23444,788.93774,774.83514
789.7436,809.4872,797.3993,782.8938
783.2967,805.05493,801.4286,786.9231
785.7143,802.23444,795.38464,782.49084
788.1319,807.0696,799.81683,789.7436
788.5348,805.4579,802.6374,791.75824
797.8022,799.011,795.78754,776.4469
799.41394,796.1905,796.5934,781.28204
788.5348,796.99634,803.44324,795.78754
777.6557,802.23444,801.02563,791.75824
778.0586,810.696,797.8022,783.2967
790.14655,811.0989,802.23444,789.34064
795.78754,805.05493,805.8608,801.02563
795.78754,805.05493,806.26373,805.05493
788.93774,806.26373,806.6667,795.38464
784.5055,805.4579,804.2491,791.3553
791.3553,801.8315,807.0696,791.75824
796.1905,807.47253,806.6667,794.57874
796.5934,799.41394,807.8755,795.78754
785.7143,798.20514,801.02563,793.36993
779.2674,801.02563,799.81683,784.90845
794.17584,799.41394,804.2491,792.1612
776.8498,801.8315,792.96704,770.80585
779.2674,804.65204,794.9817,776.8498
777.25275,799.41394,800.2198,770.40295
785.7143,805.05493,799.81683,782.0879
790.54944,807.8755,799.81683,787.72894
795.78754,805.4579,798.60803,787.326
803.44324,804.65204,796.1905,799.81683
798.60803,805.05493,800.2198,805.8608
785.31134,805.8608,800.6227,786.9231
787.72894,811.50183,801.02563,786.52014
796.5934,815.5311,802.6374,794.17584
801.8315,813.1135,799.41394,799.81683
805.4579,807.8755,795.38464,803.0403
801.4286,802.23444,792.5641,796.1905
805.8608,807.8755,790.9524,786.1172
813.91943,805.4579,797.8022,789.34064
816.337,809.4872,803.44324,801.4286
808.68134,811.9048,798.60803,800.6227
797.8022,805.05493,790.14655,788.5348
792.5641,802.23444,783.69965,771.2088
789.34064,801.02563,784.90845,769.19415
797.8022,805.05493,784.5055,796.5934
802.23444,808.2784,784.5055,813.5165
792.96704,806.6667,789.7436,803.0403
790.9524,801.8315,788.5348,788.5348
781.685,796.5934,786.52014,773.6264
784.5055,795.38464,789.7436,785.7143
801.02563,796.5934,786.9231,792.96704
799.011,792.96704,786.52014,805.8608
802.23444,791.75824,785.7143,808.2784
796.1905,799.41394,793.36993,784.90845
790.54944,797.8022,801.02563,797.3993
795.38464,796.1905,797.3993,802.23444
801.4286,787.72894,791.3553,792.5641
802.23444,785.7143,794.9817,786.9231
797.8022,793.7729,796.99634,787.72894
791.3553,797.8022,799.41394,794.9817
800.6227,799.81683,804.2491,805.8608
801.02563,803.0403,802.23444,799.011
786.9231,796.1905,798.60803,787.72894
798.60803,795.38464,800.6227,790.54944
813.91943,803.0403,799.81683,808.2784
811.50183,807.8755,799.011,818.7546
810.293,814.7253,804.2491,813.5165
814.3223,814.7253,805.8608,812.71063
797.3993,807.0696,799.81683,799.81683
792.1612,807.47253,799.011,792.1612
809.0842,811.50183,801.8315,805.05493
801.4286,812.3077,803.8461,815.9341
799.011,806.26373,809.4872,811.50183
793.36993,804.65204,816.7399,801.8315
800.6227,805.8608,805.05493,794.17584
793.7729,801.8315,796.1905,787.326
791.75824,803.0403,813.1135,795.38464
782.49084,800.6227,792.96704,779.67035
785.31134,799.41394,798.20514,791.75824
788.93774,795.78754,804.2491,803.44324
796.99634,800.6227,805.05493,796.5934
797.8022,803.8461,806.6667,794.57874
785.31134,794.9817,804.65204,796.1905
780.07324,800.2198,807.8755,781.28204
780.07324,797.3993,809.4872,784.90845
795.38464,797.3993,808.2784,800.6227
792.96704,806.6667,813.91943,803.8461
781.28204,804.2491,810.293,799.41394
789.34064,800.6227,804.2491,797.3993
803.44324,799.81683,807.0696,798.20514
804.2491,801.4286,804.65204,799.81683
795.38464,800.2198,803.8461,805.05493
794.17584,800.2198,806.26373,799.41394
801.8315,799.81683,805.05493,787.326
799.81683,794.9817,801.02563,783.2967
804.65204,794.9817,801.8315,799.81683
811.9048,803.8461,801.4286,811.50183
807.0696,807.0696,801.8315,806.6667
813.1135,808.2784,805.8608,807.47253
817.1429,805.8608,806.26373,808.68134
815.5311,803.8461,804.65204,809.89014
794.57874,806.26373,801.8315,801.02563
778.46155,806.6667,799.41394,793.7729
785.31134,807.8755,801.02563,796.5934
794.9817,807.0696,803.0403,794.57874
800.6227,806.26373,803.0403,784.5055
800.2198,807.0696,801.4286,793.7729
805.05493,808.68134,802.6374,799.011
799.41394,808.68134,804.2491,788.93774
798.60803,805.05493,809.4872,785.7143
799.41394,805.05493,806.26373,795.38464
792.5641,808.2784,807.8755,784.90845
790.9524,805.8608,804.2491,797.8022
795.78754,810.293,802.6374,790.54944
795.38464,812.3077,801.4286,788.1319
795.38464,811.9048,797.8022,783.69965
803.8461,806.6667,796.5934,793.7729
792.1612,806.6667,794.57874,793.36993
788.93774,810.293,796.1905,785.7143
795.78754,810.293,800.6227,789.34064
802.6374,803.8461,797.3993,805.05493
803.8461,811.0989,804.65204,796.5934
792.96704,811.0989,803.44324,800.6227
787.326,811.50183,796.5934,796.5934
789.7436,807.0696,793.36993,790.9524
795.38464,809.0842,794.9817,784.10254
804.65204,810.696,803.0403,796.5934
807.47253,805.05493,806.26373,809.89014
805.05493,801.4286,802.23444,798.20514
801.4286,799.011,802.6374,794.17584
807.8755,802.23444,800.6227,796.1905
810.696,806.6667,798.60803,800.2198
797.3993,805.8608,797.3993,803.0403
794.9817,810.696,801.4286,805.8608
802.23444,815.12823,803.0403,804.2491
804.65204,815.12823,800.6227,798.20514
809.4872,815.5311,799.81683,807.8755
811.9048,821.5751,805.8608,823.1868
813.1135,819.5604,811.50183,820.7692
821.5751,814.7253,809.4872,809.4872
815.5311,808.2784,803.8461,798.20514
803.0403,805.05493,798.60803,796.1905
806.6667,805.05493,801.4286,808.2784
805.05493,804.2491,807.8755,820.3663
801.4286,805.05493,805.8608,809.89014
803.0403,807.47253,801.4286,799.011
811.50183,812.3077,803.8461,805.4579
805.05493,803.44324,800.2198,805.05493
805.4579,804.65204,796.1905,796.5934
797.3993,809.89014,796.99634,789.34064
797.3993,807.0696,796.99634,784.5055
811.50183,815.9341,800.6227,797.8022
803.44324,807.0696,801.02563,796.1905
803.8461,813.1135,806.26373,806.6667
799.81683,807.0696,806.6667,801.4286
803.8461,806.6667,802.23444,792.96704
801.4286,803.0403,802.23444,799.011
798.60803,801.02563,804.2491,810.696
799.41394,805.05493,802.6374,805.4579
800.2198,803.44324,799.41394,797.8022
797.8022,803.8461,798.20514,790.54944
799.81683,806.26373,800.2198,791.3553
799.81683,810.293,797.8022,800.2198
800.6227,809.4872,791.75824,801.4286
802.6374,811.0989,793.7729,805.8608
794.9817,812.71063,796.1905,797.3993
797.3993,803.0403,798.60803,780.07324
812.3077,807.47253,806.26373,794.57874
814.7253,815.5311,805.8608,802.6374
818.3516,811.50183,799.011,800.2198
811.50183,807.0696,797.3993,790.9524
794.9817,805.4579,798.20514,780.87915
801.4286,807.47253,799.81683,792.96704
805.8608,810.696,800.2198,799.81683
806.6667,807.8755,802.23444,797.8022
806.26373,804.65204,799.011,788.1319
811.50183,807.0696,798.20514,783.2967
818.3516,807.47253,800.2198,795.38464
814.3223,807.8755,800.2198,806.26373
811.9048,807.47253,802.23444,806.6667
808.68134,796.99634,803.44324,803.44324
801.02563,796.99634,803.0403,794.17584
800.6227,803.0403,800.6227,792.1612
804.65204,810.696,798.20514,806.6667
799.011,811.9048,795.38464,812.3077
799.81683,805.4579,796.5934,801.8315
810.293,808.68134,801.02563,800.2198
811.0989,806.6667,797.8022,799.011
811.9048,800.6227,793.7729,801.02563
813.91943,803.44324,795.78754,804.65204
813.1135,805.8608,796.1905,804.65204
822.7839,803.0403,793.7729,799.011
819.15753,796.5934,793.7729,791.75824
811.0989,800.6227,799.011,795.38464
816.7399,802.6374,797.8022,802.6374
817.9487,801.02563,793.7729,800.6227
812.3077,801.4286,793.36993,786.52014
818.7546,790.54944,796.99634,796.99634
816.337,794.17584,801.8315,815.9341
806.6667,801.02563,804.65204,805.4579
800.6227,797.3993,801.8315,799.81683
809.0842,801.8315,799.011,809.89014
817.5458,805.4579,797.3993,814.3223
805.8608,794.9817,805.8608,799.81683
804.2491,804.65204,803.0403,808.2784
811.50183,807.0696,799.81683,816.337
809.0842,802.23444,802.6374,810.696
811.9048,805.05493,802.6374,807.0696
811.50183,803.44324,805.05493,813.5165
811.9048,806.26373,806.6667,829.6337
814.7253,811.9048,812.71063,830.4396
817.9487,804.2491,816.7399,820.7692
815.5311,799.41394,809.4872,819.15753
815.9341,803.8461,808.2784,820.3663
823.5897,807.8755,811.50183,826.8132
826.4103,807.47253,809.89014,827.619
820.7692,808.68134,808.2784,828.022
821.978,811.0989,806.26373,817.1429
832.4542,810.293,807.0696,823.9927
836.4835,811.9048,809.4872,832.4542
813.5165,815.12823,804.2491,816.7399
802.23444,809.4872,803.8461,806.6667
813.5165,802.6374,803.44324,801.4286
813.91943,804.2491,798.60803,808.2784
808.68134,803.0403,801.4286,820.7692
809.0842,805.8608,801.02563,820.3663
810.293,805.05493,799.41394,804.65204
814.3223,806.6667,805.4579,796.5934
815.12823,812.71063,806.6667,803.44324
818.7546,810.696,801.4286,809.4872
816.7399,804.2491,801.8315,817.1429
805.8608,803.0403,802.23444,804.2491
807.0696,813.1135,802.6374,793.36993
809.4872,815.5311,803.8461,804.65204
801.8315,811.9048,801.4286,813.5165
808.2784,808.68134,799.011,812.3077
812.3077,805.05493,798.60803,813.1135
813.5165,801.4286,799.81683,803.0403
818.7546,800.6227,796.5934,795.78754
804.2491,797.3993,792.5641,806.26373
794.9817,799.81683,799.011,813.1135
806.6667,805.4579,800.6227,809.4872
809.89014,803.44324,796.1905,807.8755
801.8315,810.293,798.60803,801.8315
804.2491,810.696,801.8315,812.71063
809.4872,804.65204,803.44324,826.4103
805.4579,807.0696,802.6374,821.1722
803.0403,803.0403,804.2491,814.3223
804.65204,800.6227,803.44324,809.4872
803.8461,806.6667,803.0403,813.5165
794.9817,809.89014,802.6374,819.15753
791.75824,809.89014,803.0403,816.7399
794.17584,805.8608,803.44324,813.1135
803.0403,806.6667,808.68134,809.89014
811.9048,804.2491,811.0989,811.0989
795.78754,801.8315,805.8608,820.3663
798.20514,805.8608,809.0842,819.15753
803.8461,803.44324,808.2784,816.7399
795.38464,812.71063,812.71063,813.5165
788.5348,809.0842,806.26373,801.4286
794.9817,805.8608,805.05493,800.2198
795.38464,803.0403,804.65204,806.26373
791.75824,805.8608,803.44324,803.0403
794.9817,811.50183,800.2198,797.3993
798.60803,806.26373,804.65204,806.6667
798.60803,803.0403,806.6667,809.0842
806.26373,802.23444,807.47253,808.2784
796.99634,803.44324,804.65204,798.20514
794.9817,804.65204,798.60803,799.011
800.2198,802.23444,804.2491,807.47253
796.1905,814.3223,806.26373,809.0842
798.20514,816.7399,806.6667,810.696
803.0403,808.68134,811.50183,808.68134
815.9341,812.3077,811.9048,800.6227
817.5458,817.1429,815.5311,803.8461
806.6667,813.91943,817.1429,815.12823
803.0403,806.26373,811.9048,821.1722
804.2491,802.6374,811.0989,798.60803
797.3993,803.44324,805.8608,785.7143
795.78754,802.6374,805.4579,792.96704
808.68134,803.8461,808.2784,799.011
799.011,804.2491,804.65204,799.011
798.60803,800.2198,801.8315,795.78754
803.44324,802.23444,799.81683,787.326
799.011,802.6374,802.23444,789.7436
799.81683,801.4286,805.8608,805.4579
792.5641,803.8461,803.44324,803.44324
786.1172,808.68134,800.6227,790.9524
791.3553,804.2491,803.0403,790.14655
795.38464,803.44324,803.0403,789.34064
795.78754,806.6667,804.65204,788.93774
799.81683,804.65204,809.0842,795.78754
800.6227,804.65204,803.8461,794.17584
799.81683,808.68134,796.99634,789.7436
802.6374,807.8755,803.0403,793.36993
799.41394,807.8755,809.4872,802.23444
794.57874,805.4579,808.2784,803.44324
793.36993,804.2491,801.02563,797.8022
793.36993,807.8755,799.41394,794.57874
793.36993,802.6374,805.05493,789.34064
788.1319,800.2198,809.4872,795.38464
789.7436,801.4286,810.293,802.6374
797.8022,800.6227,808.2784,804.2491
794.17584,797.8022,807.47253,796.5934
802.6374,801.8315,808.2784,789.7436
807.47253,808.68134,807.47253,800.6227
800.2198,803.0403,810.293,803.8461
807.47253,802.23444,811.9048,803.0403
807.0696,801.4286,807.0696,799.011
798.60803,796.99634,800.6227,794.57874
794.9817,799.81683,805.8608,790.14655
790.14655,803.0403,809.0842,794.57874
790.9524,803.8461,806.26373,796.5934
788.93774,809.0842,807.0696,787.326
794.57874,803.44324,807.47253,787.72894
802.23444,796.99634,806.6667,780.07324
803.0403,800.6227,811.0989,785.7143
800.6227,805.05493,806.6667,797.8022
796.1905,808.68134,797.3993,788.1319
790.54944,804.2491,797.8022,783.69965
791.75824,797.3993,801.4286,793.36993
801.8315,800.2198,805.05493,807.8755
803.8461,809.0842,807.8755,805.8608
803.44324,813.91943,811.9048,802.23444
804.65204,809.89014,816.7399,802.6374
800.2198,809.4872,817.5458,798.20514
813.1135,813.91943,815.12823,808.2784
810.293,812.71063,809.4872,815.12823
796.5934,809.0842,800.2198,805.8608
795.38464,807.0696,798.60803,791.75824
805.05493,810.696,804.2491,792.1612
802.6374,810.293,803.44324,806.6667
803.44324,805.4579,801.4286,805.05493
809.0842,805.4579,803.8461,801.8315
801.8315,802.23444,801.8315,794.9817
797.8022,800.6227,801.8315,785.31134
794.9817,806.26373,801.02563,789.7436
803.44324,807.0696,796.99634,799.011
812.3077,809.0842,799.41394,800.6227
810.696,809.0842,799.81683,799.81683
804.2491,804.2491,796.5934,797.8022
798.20514,804.65204,805.4579,794.17584
796.99634,807.0696,807.0696,802.23444
794.9817,796.5934,804.2491,806.26373
798.60803,791.75824,807.47253,805.8608
808.68134,799.81683,803.8461,812.71063
807.8755,796.5934,808.68134,805.05493
819.15753,801.4286,808.2784,828.8278
809.89014,795.78754,803.44324,801.02563
816.7399,798.60803,806.26373,819.5604
810.293,799.81683,805.8608,813.91943
803.8461,800.2198,799.41394,814.3223
792.1612,796.99634,799.011,801.4286
801.02563,799.41394,807.0696,803.44324
800.6227,796.99634,797.3993,798.20514
801.4286,796.5934,795.38464,791.75824
799.81683,801.02563,801.02563,797.8022
800.6227,812.3077,803.0403,811.0989
803.0403,814.3223,800.6227,813.91943
813.5165,805.8608,800.6227,816.337
802.23444,802.6374,800.6227,812.3077
794.17584,805.05493,800.2198,809.4872
803.0403,804.65204,796.5934,813.5165
806.6667,806.6667,796.99634,816.7399
811.9048,808.68134,801.02563,813.5165
815.5311,809.0842,800.2198,807.0696
815.9341,812.3077,797.8022,799.41394
809.4872,808.68134,801.02563,805.8608
802.23444,807.8755,800.6227,805.05493
803.44324,805.8608,796.5934,792.1612
799.011,805.05493,794.17584,788.5348
799.41394,807.8755,795.38464,789.7436
805.8608,807.0696,799.41394,809.89014
802.23444,807.47253,798.60803,818.3516
796.1905,805.8608,799.011,794.57874
804.65204,806.6667,802.23444,791.75824
803.44324,813.1135,798.20514,794.17584
803.44324,807.0696,800.2198,796.99634
809.89014,811.0989,809.4872,808.68134
813.1135,815.12823,808.2784,807.0696
806.26373,807.47253,805.05493,805.05493
796.5934,806.26373,801.02563,796.1905
796.99634,807.0696,800.2198,796.1905
807.0696,807.47253,809.89014,816.7399
802.6374,812.71063,809.4872,806.26373
794.9817,810.293,807.0696,789.34064
791.75824,803.0403,808.68134,786.9231
790.54944,808.2784,807.0696,799.011
794.9817,808.2784,809.89014,807.47253
790.14655,808.2784,809.0842,795.78754
788.93774,811.0989,807.8755,785.31134
791.3553,811.50183,805.4579,776.04395
789.34064,808.68134,801.8315,785.31134
790.14655,802.23444,802.23444,803.0403
792.5641,800.6227,799.41394,803.0403
800.6227,805.8608,797.8022,792.96704
799.41394,805.4579,794.57874,781.28204
791.75824,805.4579,795.38464,789.7436
791.75824,806.6667,797.3993,805.8608
792.1612,804.65204,797.3993,796.1905
794.17584,805.8608,797.8022,785.31134
794.57874,809.4872,799.41394,781.28204
791.3553,805.8608,796.5934,788.1319
799.81683,799.41394,795.78754,801.8315
810.293,799.41394,803.0403,810.293
800.6227,801.8315,807.47253,806.6667
798.20514,799.011,808.2784,792.96704
800.6227,800.2198,805.8608,794.57874
792.96704,800.2198,804.65204,795.78754
796.5934,802.23444,806.26373,798.20514
800.2198,800.6227,805.8608,801.4286
801.4286,794.17584,805.05493,792.96704
802.6374,792.96704,804.2491,794.17584
800.2198,790.54944,803.44324,802.6374
797.3993,792.1612,805.05493,807.0696
798.20514,792.96704,803.0403,811.0989
792.5641,784.90845,802.23444,804.65204
792.1612,789.7436,799.011,794.17584
795.38464,792.5641,799.81683,802.23444
803.8461,795.38464,803.44324,815.9341
804.2491,805.4579,800.2198,817.9487
794.9817,804.2491,800.6227,802.6374
804.2491,807.8755,804.2491,796.99634
811.0989,812.3077,807.8755,806.26373
810.696,813.91943,804.2491,802.23444
808.2784,813.91943,803.0403,798.60803
800.2198,814.7253,805.05493,793.36993
796.1905,807.8755,800.2198,779.67035
799.41394,795.78754,795.78754,782.49084
804.65204,799.81683,796.5934,797.8022
805.4579,806.26373,798.60803,807.8755
804.2491,805.4579,800.2198,808.2784
800.2198,805.05493,798.60803,802.23444
802.6374,810.696,801.02563,798.20514
809.4872,809.4872,801.02563,803.0403
806.26373,805.8608,797.8022,815.5311
803.0403,800.2198,796.99634,813.1135
805.05493,798.20514,796.5934,796.99634
794.57874,801.8315,795.78754,794.17584
793.7729,797.3993,797.3993,804.65204
797.3993,801.02563,804.2491,805.8608
805.8608,801.8315,803.44324,799.81683
814.7253,803.44324,800.2198,801.02563
817.5458,810.293,805.4579,799.81683
801.4286,809.4872,803.0403,801.8315
794.17584,808.68134,801.4286,805.05493
796.1905,806.6667,801.8315,799.011
794.57874,803.44324,796.99634,787.72894
795.78754,804.65204,795.38464,786.52014
793.36993,805.4579,800.6227,799.011
794.9817,812.3077,805.8608,807.0696
795.38464,810.293,798.20514,799.81683
791.75824,804.2491,794.57874,797.8022
787.326,806.26373,796.5934,794.57874
786.52014,807.47253,802.23444,803.0403
802.23444,805.4579,799.011,804.2491
796.5934,806.26373,804.65204,816.337
795.78754,807.8755,794.57874,795.78754
794.17584,808.68134,794.57874,805.05493
796.5934,803.44324,797.3993,803.0403
799.011,805.8608,794.57874,798.60803
799.011,802.23444,799.41394,815.12823
808.2784,808.68134,798.60803,800.6227
805.05493,805.05493,796.1905,787.72894
803.44324,799.011,796.1905,794.57874
800.6227,801.8315,798.20514,812.3077
801.4286,801.4286,798.20514,807.8755
805.4579,805.05493,799.81683,796.99634
809.0842,806.26373,798.20514,788.93774
811.50183,804.2491,798.60803,791.75824
801.02563,803.8461,804.65204,804.2491
803.0403,806.26373,811.0989,808.2784
802.6374,811.50183,806.6667,798.20514
798.20514,811.0989,800.6227,790.9524
798.60803,807.0696,800.6227,801.4286
798.60803,811.9048,803.44324,817.1429
806.26373,812.3077,805.8608,821.978
807.47253,811.50183,802.6374,817.5458
802.23444,813.1135,799.81683,806.26373
809.4872,808.68134,802.6374,800.6227
813.5165,809.89014,799.41394,803.8461
814.3223,813.1135,799.011,807.8755
810.696,809.0842,798.60803,798.20514
810.293,811.0989,801.02563,795.38464
818.7546,811.50183,803.8461,808.68134
814.7253,809.89014,803.44324,811.50183
822.381,815.12823,802.23444,809.4872
816.337,813.91943,805.8608,805.8608
810.293,812.71063,805.4579,799.41394
807.47253,812.71063,801.4286,797.8022
802.23444,811.50183,800.6227,817.1429
804.2491,809.0842,807.47253,809.0842
806.26373,811.50183,801.4286,806.26373
807.0696,807.0696,806.6667,794.17584
801.8315,803.44324,801.02563,795.38464
800.6227,803.44324,806.6667,801.4286
800.6227,815.9341,806.26373,805.05493
804.2491,811.50183,804.65204,802.23444
811.9048,803.0403,805.05493,794.9817
809.4872,805.4579,801.8315,792.5641
811.0989,804.2491,802.6374,797.8022
799.41394,798.20514,801.02563,801.4286
787.72894,798.20514,804.2491,786.9231
791.3553,796.99634,799.41394,794.57874
795.38464,799.41394,810.696,793.7729
805.8608,799.81683,806.6667,807.0696
797.8022,798.20514,805.8608,792.5641
803.0403,799.81683,807.47253,788.93774
805.8608,805.05493,804.65204,796.1905
796.99634,805.4579,801.02563,783.69965
794.17584,807.47253,798.20514,785.31134
793.7729,801.02563,800.2198,792.5641
792.1612,796.1905,801.8315,786.52014
794.17584,801.8315,799.81683,783.2967
789.7436,809.0842,794.57874,776.4469
792.96704,808.68134,797.8022,780.4762
806.6667,803.44324,799.011,792.96704
805.4579,802.6374,800.6227,793.7729
802.6374,802.6374,801.8315,787.326
799.41394,799.41394,794.17584,774.83514
801.02563,799.011,795.38464,781.685
805.05493,803.44324,799.41394,798.60803
802.23444,805.05493,798.60803,795.78754
805.05493,800.2198,794.57874,794.17584
804.65204,796.5934,793.7729,792.1612
802.6374,793.36993,797.3993,792.96704
801.02563,793.7729,802.23444,807.8755
794.57874,798.20514,803.8461,816.7399
790.54944,795.78754,801.02563,798.60803
789.34064,792.1612,798.60803,776.8498
793.7729,793.7729,798.60803,785.31134
799.011,798.60803,802.6374,798.20514
797.8022,800.6227,807.47253,803.44324
