eeg_1,eeg_2,eeg_3,eeg_4
793.36993,803.44324,790.14655,872.74725
783.69965,808.68134,785.7143,874.35895
776.4469,815.9341,785.7143,905.78754
774.43225,815.5311,796.1905,929.15753
768.3883,805.05493,794.9817,933.9927
761.13556,793.7729,779.67035,943.663
737.76556,797.8022,774.0293,925.5311
725.6777,811.0989,770,913.0403
748.24176,810.293,780.87915,948.49817
770.40295,809.4872,796.99634,951.7216
772.01465,814.3223,782.8938,937.619
754.2857,824.7985,766.77655,925.9341
743.00366,840.9158,774.83514,922.3077
763.5531,831.2454,781.685,977.1062
788.1319,816.7399,797.8022,1034.7252
786.52014,813.91943,793.36993,1053.2601
766.77655,783.2967,770.40295,1046.0073
767.98535,752.27106,752.674,1089.1208
766.77655,775.64105,744.61536,1135.4579
761.13556,814.3223,755.09155,1140.6959
786.52014,834.4689,772.8205,1138.6813
795.78754,814.3223,771.6117,1122.1611
756.7033,781.28204,745.42126,1109.6703
731.31866,788.5348,758.315,1120.9524
738.1685,801.02563,782.8938,1141.5018
747.4359,805.8608,765.9707,1139.0842
751.8681,801.4286,752.674,1122.5641
738.97437,807.0696,776.4469,1122.1611
749.45056,822.381,786.1172,1164.4689
777.6557,794.57874,770,1156.8132
720.0366,775.2381,764.35895,1104.4323
711.1722,774.0293,774.0293,1091.1355
808.2784,826.0073,778.86444,1197.1062
745.42126,776.4469,760.32965,1234.1758
793.36993,801.8315,775.2381,1397.7656
716.8132,763.5531,767.5824,1108.0586
824.7985,815.5311,780.07324,1474.7252
826.8132,809.4872,795.78754,1508.9744
809.4872,803.0403,813.1135,1539.1941
809.4872,815.9341,815.5311,1567.3993
842.52747,821.1722,819.5604,1573.8462
857.8388,824.3956,823.9927,1571.4286
809.4872,823.9927,807.47253,1544.0293
778.46155,802.6374,805.4579,1527.5092
797.8022,790.9524,810.293,1538.7913
789.7436,803.44324,801.4286,1532.3444
772.8205,805.8608,799.81683,1514.2124
790.54944,803.8461,796.99634,1502.1245
802.23444,822.381,809.89014,1505.751
810.696,821.1722,816.337,1507.3627
807.47253,809.4872,802.23444,1481.1721
794.17584,804.2491,792.96704,1445.7142
789.34064,805.8608,793.7729,1413.8828
776.4469,807.0696,790.54944,1395.348
786.1172,809.0842,796.5934,1413.0769
828.4249,819.5604,819.15753,1428.3883
841.7216,807.8755,816.7399,1411.4652
805.05493,796.5934,796.1905,1376.4103
795.78754,811.0989,788.5348,1347.8022
789.7436,814.7253,797.8022,1354.652
788.5348,811.9048,803.44324,1359.4872
787.72894,816.337,802.23444,1334.5055
783.69965,817.9487,805.8608,1302.674
801.02563,834.0659,807.8755,1286.1538
815.9341,839.304,807.0696,1299.0476
803.0403,823.5897,798.60803,1278.4982
814.3223,821.978,799.011,1298.6447
811.0989,825.6044,800.6227,1302.2711
784.10254,827.619,793.7729,1259.5604
774.43225,822.7839,787.72894,1259.5604
789.7436,814.7253,794.57874,1274.4689
818.3516,819.9634,806.6667,1278.0952
843.73627,826.4103,814.3223,1258.3517
802.23444,822.7839,812.3077,1237.8022
750.2564,821.978,799.41394,1213.6263
776.8498,834.0659,799.41394,1210.403
797.8022,838.49817,805.05493,1208.3883
778.46155,832.0513,804.2491,1191.8682
784.5055,822.7839,813.1135,1187.033
780.4762,822.381,811.50183,1183.4066
786.1172,829.6337,799.81683,1191.0623
822.381,831.6484,801.4286,1191.4652
828.8278,832.8571,800.6227,1162.8572
807.8755,834.87177,792.96704,1137.8755
798.20514,840.10986,791.3553,1140.6959
811.9048,848.97437,805.8608,1163.663
860.65936,868.315,828.022,1180.989
873.5531,873.5531,830.0366,1161.6483
839.304,866.7033,819.5604,1127.3993
822.7839,864.68866,828.022,1118.9377
841.7216,861.06226,842.1245,1127.8022
851.39197,850.18317,832.8571,1129.8169
833.663,845.7509,826.0073,1106.8499
827.2161,857.8388,845.7509,1085.4945
838.9011,866.30035,852.1978,1087.1062
853.8095,875.16486,853.4066,1099.597
851.79486,864.68866,847.76556,1097.5824
810.696,828.022,822.7839,1063.3334
783.2967,805.8608,799.41394,1013.7729
792.96704,820.3663,796.5934,1013.7729
805.8608,836.8865,811.0989,1034.3224
825.6044,835.6777,826.4103,1031.5018
858.6447,842.52747,836.8865,1025.8608
834.87177,833.2601,833.2601,993.6264
810.293,833.2601,832.0513,982.74725
844.1392,838.49817,832.4542,1010.14655
860.2564,832.0513,819.9634,1011.3553
837.6923,819.9634,805.05493,996.04395
815.5311,818.7546,804.2491,986.3736
807.8755,828.8278,816.337,985.16486
830.0366,842.9304,827.619,1014.9817
865.4945,844.5421,824.3956,1032.7106
857.03296,830.0366,799.81683,1008.1319
791.3553,803.0403,789.7436,949.304
815.12823,813.5165,794.17584,965.0183
808.68134,814.3223,780.4762,965.42126
845.7509,848.5714,792.1612,991.2088
868.315,861.06226,803.44324,1002.0879
829.2308,837.28937,792.1612,965.0183
783.69965,837.28937,788.5348,944.4689
795.78754,846.55676,797.3993,973.0769
811.9048,846.55676,794.9817,987.5824
829.2308,850.989,794.9817,977.1062
806.6667,841.31866,785.7143,946.08057
779.67035,829.2308,785.31134,925.9341
789.34064,845.7509,795.38464,940.4396
790.54944,843.73627,790.9524,943.2601
796.1905,830.4396,780.4762,932.381
813.1135,836.4835,769.59705,927.1429
831.2454,853.4066,777.6557,919.0842
828.022,843.3333,795.38464,927.5458
813.5165,812.71063,778.86444,939.2308
807.0696,794.17584,760.7326,940.0366
797.8022,794.17584,760.7326,916.6667
777.6557,807.8755,756.30035,881.6117
779.2674,804.2491,758.71796,893.2967
807.0696,800.6227,767.1795,923.1135
823.1868,803.0403,770,923.1135
805.4579,795.38464,773.6264,902.1612
775.64105,796.5934,770,868.71796
807.0696,820.7692,770.40295,900.54944
784.90845,812.3077,764.35895,868.315
815.5311,808.2784,772.01465,915.4579
815.12823,801.02563,759.5238,897.326
798.60803,807.47253,756.30035,853.4066
779.67035,800.2198,761.9414,846.9597
795.78754,804.2491,767.5824,884.43225
839.304,834.0659,782.8938,916.6667
834.87177,830.0366,779.67035,906.99634
780.87915,799.011,747.8388,862.674
761.13556,798.60803,743.4066,852.1978
785.7143,819.15753,763.1502,880.80585
805.8608,827.2161,766.77655,892.8938
812.71063,820.7692,766.3736,876.77655
807.47253,804.65204,769.19415,860.65936
781.28204,788.5348,761.13556,856.63007
783.2967,804.65204,755.4945,881.2088
800.6227,806.6667,759.5238,902.1612
801.02563,807.8755,758.315,888.86444
816.337,835.6777,759.12085,884.43225
812.71063,834.87177,764.7619,884.43225
777.6557,822.7839,759.92676,878.7912
786.52014,823.5897,765.56775,881.6117
802.6374,842.52747,784.5055,887.25275
784.10254,824.7985,765.9707,880
805.05493,838.0952,784.5055,883.22345
800.2198,827.619,773.22345,879.59705
817.1429,833.2601,781.685,895.7143
824.3956,834.0659,785.7143,901.3553
790.9524,826.0073,759.12085,869.92676
755.09155,817.5458,749.85345,838.0952
758.71796,819.15753,760.7326,841.31866
782.8938,828.4249,757.1062,867.9121
825.2015,838.49817,785.7143,882.01465
809.89014,835.2747,769.19415,888.0586
809.0842,828.8278,779.67035,865.09155
799.41394,820.7692,784.10254,881.6117
803.8461,823.1868,784.10254,903.36993
776.8498,805.8608,766.77655,887.25275
762.74725,790.9524,758.71796,863.8828
763.1502,796.5934,759.12085,850.18317
764.7619,807.8755,767.1795,865.89746
785.31134,822.381,774.43225,888.86444
821.1722,830.84247,776.04395,898.5348
817.5458,825.6044,774.43225,880.40295
763.1502,811.50183,769.19415,843.73627
757.50916,813.91943,778.0586,850.989
772.01465,825.6044,772.4176,871.13556
788.1319,840.5128,754.2857,875.9707
802.6374,828.8278,767.1795,855.42126
794.17584,817.1429,789.7436,835.6777
785.7143,832.4542,795.38464,854.61536
778.46155,823.9927,780.87915,879.19415
776.8498,812.71063,758.71796,873.95605
780.87915,816.337,760.32965,861.06226
771.6117,811.0989,767.98535,841.31866
775.64105,801.4286,767.5824,837.28937
788.1319,796.1905,773.22345,867.9121
803.8461,799.41394,771.6117,888.46155
825.2015,802.23444,766.77655,880.80585
798.60803,809.4872,769.59705,855.42126
797.3993,806.6667,762.3443,869.12085
809.4872,790.54944,759.12085,874.7619
810.696,796.5934,766.77655,859.85345
817.1429,787.72894,763.95605,865.09155
807.0696,799.41394,773.22345,844.1392
790.14655,811.9048,779.2674,840.5128
791.75824,811.50183,781.685,859.85345
806.6667,811.9048,776.8498,875.16486
837.28937,829.2308,780.4762,867.1062
819.15753,818.7546,784.5055,844.1392
824.3956,823.5897,773.22345,877.5824
802.6374,814.7253,784.5055,850.989
813.1135,821.1722,772.4176,860.2564
829.2308,820.7692,772.8205,847.76556
804.2491,805.05493,775.64105,832.4542
768.7912,798.60803,773.22345,805.05493
785.7143,813.5165,772.4176,807.8755
833.2601,809.4872,767.5824,832.4542
848.1685,805.8608,783.69965,847.76556
835.2747,812.71063,793.36993,839.707
831.6484,822.381,799.41394,830.4396
833.2601,815.9341,794.57874,836.8865
807.0696,792.1612,783.69965,840.5128
803.0403,796.99634,786.1172,843.3333
830.84247,810.696,780.4762,840.5128
817.5458,808.68134,774.43225,822.381
801.02563,826.8132,788.93774,833.663
823.5897,837.28937,791.3553,859.85345
816.337,802.23444,765.16486,838.0952
811.9048,799.81683,784.5055,832.0513
823.5897,809.89014,803.0403,837.28937
808.2784,814.3223,790.9524,819.5604
803.8461,806.6667,782.49084,822.381
819.15753,792.96704,782.8938,836.4835
826.4103,793.36993,791.3553,841.7216
814.3223,808.68134,799.011,826.4103
809.4872,823.1868,800.2198,818.3516
823.1868,819.9634,789.7436,838.0952
844.1392,819.15753,791.75824,855.82416
832.8571,815.9341,794.17584,841.7216
812.71063,799.011,791.3553,820.3663
815.5311,790.14655,793.36993,815.5311
808.68134,788.5348,782.8938,834.87177
813.91943,805.05493,784.10254,850.58606
847.76556,820.3663,802.6374,848.97437
841.31866,815.9341,801.8315,828.4249
808.68134,820.3663,792.96704,817.1429
802.23444,806.6667,789.7436,837.28937
807.0696,793.7729,786.1172,848.97437
809.0842,796.5934,775.64105,834.0659
829.2308,805.4579,782.8938,830.4396
846.9597,832.8571,802.23444,841.7216
819.9634,817.1429,792.1612,843.73627
830.84247,796.5934,772.8205,851.79486
807.47253,781.685,774.83514,842.1245
837.6923,797.3993,775.64105,838.0952
830.4396,794.9817,774.43225,827.619
849.7802,818.7546,796.1905,860.65936
863.47986,814.7253,809.89014,874.7619
850.58606,811.0989,806.6667,861.06226
861.06226,823.9927,808.68134,855.0183
849.3773,805.8608,803.8461,829.2308
815.12823,788.93774,798.60803,824.3956
798.60803,789.34064,780.4762,833.663
815.12823,801.8315,783.69965,843.73627
812.71063,799.41394,791.3553,831.6484
790.54944,788.1319,791.3553,803.44324
782.49084,786.52014,793.36993,809.89014
795.38464,800.2198,793.7729,834.0659
830.84247,820.3663,798.60803,848.5714
850.18317,825.6044,804.65204,843.73627
837.28937,826.4103,805.8608,825.6044
824.3956,830.4396,805.8608,828.8278
835.6777,816.337,798.20514,859.45056
867.1062,807.0696,800.6227,884.43225
871.9414,826.4103,811.50183,880
841.31866,823.1868,805.8608,840.9158
815.9341,813.5165,794.57874,815.5311
837.6923,830.0366,796.99634,837.28937
868.315,831.6484,800.6227,863.0769
850.58606,816.337,796.1905,850.58606
832.0513,815.5311,794.57874,833.2601
831.6484,819.5604,796.1905,836.4835
843.73627,821.1722,804.2491,857.4359
867.9121,827.2161,798.60803,868.315
854.21246,811.50183,785.7143,850.18317
813.1135,798.60803,787.72894,816.337
796.99634,808.68134,791.75824,806.6667
815.5311,821.1722,796.99634,831.6484
842.52747,823.9927,801.8315,854.61536
835.6777,812.3077,799.81683,845.7509
824.7985,811.0989,796.99634,826.0073
821.1722,819.15753,801.02563,823.1868
818.7546,824.7985,792.96704,838.0952
821.978,824.7985,784.90845,844.5421
842.1245,840.5128,813.1135,853.8095
866.30035,846.9597,826.8132,847.76556
834.87177,821.978,812.71063,826.8132
776.4469,804.2491,782.8938,821.5751
788.93774,804.65204,771.2088,829.6337
827.619,815.12823,783.69965,838.49817
831.2454,819.15753,792.5641,821.978
798.20514,806.26373,787.72894,788.1319
794.57874,817.9487,790.54944,795.38464
832.8571,830.84247,804.65204,839.707
820.7692,812.71063,804.65204,841.31866
799.81683,813.91943,798.60803,812.71063
792.96704,818.7546,797.3993,794.57874
792.1612,823.5897,800.2198,803.0403
797.8022,817.5458,795.78754,823.5897
801.4286,805.4579,788.93774,831.6484
799.41394,809.0842,791.75824,809.0842
782.49084,812.3077,795.38464,786.52014
776.4469,827.2161,799.81683,803.44324
796.1905,832.4542,808.68134,829.2308
834.4689,836.8865,817.5458,841.31866
843.3333,836.08057,812.3077,836.4835
809.4872,836.4835,795.78754,807.47253
795.78754,831.2454,794.17584,790.54944
812.3077,817.1429,801.8315,813.91943
836.8865,828.4249,805.05493,841.7216
853.4066,833.663,797.3993,835.6777
829.6337,815.5311,787.72894,796.99634
789.34064,818.3516,782.0879,792.96704
795.38464,837.28937,790.9524,815.9341
823.1868,838.0952,808.2784,834.0659
832.0513,825.2015,810.696,842.52747
815.12823,819.9634,794.57874,809.4872
803.8461,822.7839,794.17584,795.38464
842.52747,832.8571,810.293,844.1392
847.76556,821.5751,814.3223,854.21246
836.08057,828.022,813.91943,839.304
841.31866,848.1685,803.0403,816.7399
820.7692,839.707,804.2491,812.3077
810.696,818.3516,807.0696,838.0952
827.2161,803.8461,788.5348,850.58606
855.82416,819.15753,794.57874,854.61536
848.1685,828.8278,803.8461,840.10986
821.978,824.7985,792.96704,818.3516
813.1135,820.3663,790.14655,825.6044
838.49817,826.0073,802.23444,857.8388
858.6447,836.08057,809.0842,869.12085
836.08057,830.0366,805.4579,834.87177
798.60803,815.5311,801.4286,809.4872
809.0842,819.9634,800.2198,831.2454
842.1245,813.5165,804.65204,861.8681
828.4249,798.60803,805.8608,859.0476
830.4396,819.15753,814.3223,840.10986
849.3773,839.707,826.4103,844.5421
828.022,819.9634,807.8755,838.9011
821.1722,801.4286,787.72894,840.9158
842.52747,807.8755,792.5641,847.3626
834.0659,810.293,796.5934,823.1868
795.78754,806.26373,786.1172,802.6374
765.16486,810.696,780.07324,813.5165
791.3553,815.9341,781.28204,829.2308
834.87177,813.5165,779.67035,827.2161
835.2747,811.0989,776.4469,815.12823
819.15753,811.50183,778.86444,797.8022
821.978,802.6374,789.7436,801.02563
843.73627,811.9048,799.81683,842.1245
859.0476,836.4835,802.6374,865.89746
854.21246,839.304,794.9817,847.3626
820.3663,828.8278,786.1172,825.2015
797.8022,829.6337,792.5641,828.4249
819.9634,822.381,805.05493,844.1392
858.6447,812.71063,807.8755,862.674
840.9158,801.02563,801.4286,852.1978
799.011,806.6667,789.7436,812.3077
782.49084,805.05493,788.93774,800.2198
786.9231,801.4286,795.78754,828.022
817.9487,816.337,799.81683,856.63007
839.707,823.9927,800.6227,862.674
813.1135,823.1868,793.7729,832.8571
778.0586,814.7253,788.5348,811.50183
796.99634,824.3956,797.3993,840.10986
835.2747,844.5421,804.65204,877.98535
811.0989,817.9487,789.7436,830.4396
838.49817,829.2308,795.38464,874.35895
769.19415,823.5897,789.34064,800.2198
772.01465,827.2161,794.9817,819.9634
851.79486,822.381,800.6227,865.09155
889.2674,819.9634,804.65204,886.04395
843.73627,816.7399,812.3077,853.4066
774.43225,807.47253,794.57874,799.41394
763.95605,804.65204,781.28204,803.8461
811.0989,812.71063,801.8315,848.5714
826.8132,832.8571,804.65204,844.94507
802.6374,836.4835,785.7143,799.011
775.64105,820.7692,778.0586,780.4762
765.16486,805.8608,782.0879,807.47253
811.0989,823.5897,790.9524,842.1245
831.2454,836.8865,796.1905,837.6923
805.4579,832.4542,789.7436,818.7546
765.56775,823.9927,781.28204,792.96704
739.3773,817.1429,782.8938,788.93774
777.6557,824.7985,794.57874,820.3663
806.26373,821.978,797.3993,836.4835
787.72894,815.12823,788.1319,819.9634
768.7912,810.293,789.34064,821.1722
763.95605,804.65204,795.38464,852.1978
798.20514,818.3516,802.23444,892.8938
849.3773,848.1685,814.3223,922.3077
843.73627,844.1392,814.3223,915.05493
792.96704,813.91943,795.78754,871.13556
772.01465,814.7253,790.9524,859.45056
783.69965,820.3663,793.7729,883.22345
799.011,815.12823,770.80585,902.5641
801.8315,814.7253,767.98535,897.326
801.8315,826.0073,793.36993,880.40295
786.9231,833.663,806.6667,882.8205
789.34064,832.4542,807.8755,886.8498
815.12823,821.978,796.5934,894.90845
813.91943,830.0366,805.05493,871.53845
822.7839,821.1722,793.36993,894.90845
778.46155,826.8132,797.8022,854.61536
782.0879,823.1868,790.14655,869.5238
816.7399,810.696,788.93774,884.83514
821.978,807.47253,794.57874,880.40295
819.5604,821.1722,803.44324,874.35895
799.011,820.3663,797.3993,863.8828
807.0696,815.9341,805.4579,877.5824
837.28937,816.337,811.9048,898.93774
832.0513,805.05493,796.1905,897.72894
812.3077,803.44324,795.38464,874.7619
772.4176,808.68134,794.57874,848.1685
785.7143,809.0842,787.72894,861.4652
844.1392,813.1135,786.52014,885.64105
873.5531,824.3956,793.7729,893.2967
844.1392,804.65204,793.36993,868.315
801.8315,794.9817,786.1172,830.84247
806.26373,807.8755,795.38464,848.1685
823.1868,802.23444,799.41394,877.1795
827.619,800.6227,790.9524,877.1795
827.2161,814.3223,794.9817,860.2564
811.0989,820.3663,802.23444,845.7509
809.4872,812.71063,805.4579,857.03296
832.8571,806.26373,802.23444,882.8205
841.31866,798.20514,792.5641,881.6117
836.4835,798.20514,800.6227,861.8681
819.15753,813.5165,813.1135,849.3773
817.5458,815.5311,815.5311,853.4066
825.2015,806.26373,815.12823,866.7033
825.6044,799.41394,802.23444,864.68866
816.337,803.8461,784.5055,844.1392
798.20514,802.6374,777.6557,812.71063
806.26373,813.1135,794.17584,828.8278
848.1685,831.2454,800.6227,867.50916
860.2564,817.1429,801.02563,871.9414
842.9304,808.2784,796.5934,850.58606
807.0696,801.02563,788.1319,822.381
789.34064,799.81683,795.78754,825.6044
821.978,809.4872,811.0989,852.6007
844.1392,802.23444,814.3223,871.9414
874.7619,819.9634,825.6044,875.56775
860.2564,819.5604,816.7399,847.76556
795.38464,788.93774,794.17584,828.022
813.1135,795.78754,799.81683,839.707
857.4359,791.75824,798.60803,846.9597
865.09155,794.57874,803.8461,846.55676
835.6777,807.8755,813.91943,829.2308
799.011,805.05493,809.89014,828.8278
809.4872,808.68134,813.1135,855.0183
827.619,819.15753,805.4579,871.53845
834.87177,814.7253,789.34064,865.4945
808.68134,792.96704,790.54944,840.5128
795.38464,800.2198,807.47253,843.3333
831.6484,799.011,820.3663,875.9707
860.65936,801.8315,802.6374,888.86444
859.45056,817.1429,803.0403,880.40295
807.0696,794.57874,807.47253,849.3773
752.674,790.14655,787.72894,815.9341
776.4469,815.12823,789.7436,842.1245
824.3956,824.7985,801.8315,874.7619
840.9158,817.5458,797.8022,866.7033
832.8571,814.3223,802.23444,848.97437
805.05493,824.3956,811.0989,836.08057
803.0403,817.1429,811.0989,838.49817
833.2601,807.8755,815.12823,851.79486
839.707,812.71063,812.3077,855.0183
819.9634,811.0989,811.50183,829.2308
772.8205,805.8608,810.696,797.3993
741.79486,810.293,800.2198,800.6227
790.54944,824.7985,810.696,829.2308
828.8278,830.4396,816.7399,835.2747
763.1502,806.26373,794.17584,776.4469
755.09155,807.0696,801.02563,782.49084
816.337,831.6484,821.1722,829.6337
808.2784,821.978,803.8461,809.4872
838.49817,819.9634,807.8755,841.7216
794.57874,801.8315,782.8938,809.0842
768.3883,810.293,783.2967,767.5824
797.3993,803.0403,791.75824,795.78754
766.77655,817.1429,787.72894,759.12085
838.0952,798.60803,815.9341,828.4249
848.97437,831.6484,827.619,818.3516
807.0696,842.1245,814.7253,778.86444
764.35895,838.9011,808.2784,765.9707
782.8938,837.28937,809.0842,786.52014
816.7399,824.3956,805.8608,799.41394
826.0073,831.2454,806.6667,791.75824
798.20514,824.7985,807.8755,773.6264
745.42126,813.1135,800.6227,745.0183
746.2271,818.3516,795.38464,762.74725
796.99634,819.15753,798.20514,796.5934
819.5604,817.5458,802.23444,791.75824
792.1612,817.5458,801.4286,769.59705
767.5824,823.1868,808.68134,756.7033
789.7436,817.5458,813.1135,778.86444
819.9634,818.7546,811.0989,803.8461
817.9487,823.9927,813.91943,806.26373
802.6374,824.3956,819.5604,786.1172
781.28204,828.022,818.3516,767.98535
779.67035,807.8755,809.0842,787.326
809.89014,795.38464,808.2784,814.3223
824.7985,805.05493,810.696,814.7253
823.5897,808.2784,815.5311,806.26373
803.44324,811.9048,814.7253,795.38464
796.99634,817.9487,814.7253,809.89014
822.381,826.0073,813.1135,825.2015
848.97437,825.6044,804.2491,826.4103
848.97437,818.7546,803.8461,807.0696
804.65204,817.5458,797.8022,777.6557
786.52014,823.9927,803.0403,788.5348
832.0513,825.2015,819.9634,829.6337
859.45056,805.05493,815.12823,845.34796
843.73627,806.26373,814.3223,832.0513
803.8461,813.1135,812.3077,800.6227
784.5055,808.2784,806.26373,799.011
819.9634,809.0842,813.5165,824.3956
845.34796,814.7253,812.3077,838.0952
834.4689,803.8461,805.05493,824.3956
790.9524,796.1905,803.0403,803.44324
776.8498,803.0403,797.8022,808.68134
805.05493,805.4579,794.9817,830.84247
840.9158,815.12823,802.23444,844.1392
860.65936,799.81683,810.293,830.4396
829.6337,784.5055,810.293,810.293
821.978,805.4579,817.1429,825.2015
842.52747,818.7546,817.5458,837.28937
834.4689,818.3516,811.0989,832.0513
832.8571,815.9341,806.26373,830.4396
828.4249,818.7546,811.9048,811.50183
807.0696,824.3956,817.5458,809.0842
807.47253,819.5604,807.47253,830.84247
824.3956,802.6374,796.1905,840.5128
848.97437,807.8755,795.78754,844.5421
830.4396,815.9341,796.5934,806.26373
790.9524,813.1135,794.9817,782.49084
816.7399,809.89014,799.81683,819.5604
838.0952,803.8461,794.17584,844.1392
850.989,805.4579,799.011,850.18317
838.0952,814.3223,806.6667,828.022
794.17584,815.12823,809.4872,800.2198
800.2198,820.7692,819.15753,815.12823
835.6777,819.15753,809.0842,830.84247
840.9158,822.381,801.4286,829.6337
809.4872,819.15753,804.2491,794.9817
798.60803,819.5604,816.7399,780.07324
818.3516,826.8132,822.7839,821.978
839.707,822.7839,819.5604,835.6777
848.97437,823.9927,819.9634,822.7839
827.619,813.5165,810.293,817.1429
796.5934,808.68134,808.2784,810.293
840.5128,832.8571,820.7692,848.1685
798.20514,796.99634,806.26373,802.23444
853.4066,824.7985,818.7546,834.4689
815.12823,803.44324,797.8022,805.8608
792.5641,807.47253,799.41394,796.5934
805.4579,820.3663,803.8461,794.17584
847.3626,832.0513,806.6667,818.3516
869.92676,844.1392,814.3223,828.022
848.5714,840.5128,810.696,818.7546
788.1319,811.50183,795.78754,775.2381
757.9121,808.68134,792.5641,758.315
801.8315,817.9487,805.4579,805.05493
823.5897,803.0403,805.4579,815.9341
801.4286,796.1905,798.20514,784.10254
776.8498,810.293,794.57874,753.8828
810.293,823.1868,809.0842,803.0403
780.4762,827.2161,800.2198,755.09155
832.4542,811.9048,811.0989,831.2454
841.7216,811.50183,813.1135,813.1135
822.7839,821.978,807.0696,776.04395
794.57874,815.9341,798.20514,770
787.72894,807.8755,794.17584,776.04395
807.0696,817.1429,796.5934,786.1172
802.23444,813.5165,797.8022,777.25275
769.19415,809.89014,794.9817,743.8095
755.4945,821.1722,797.3993,740.989
764.7619,819.15753,800.2198,766.77655
783.69965,815.12823,794.57874,777.6557
798.60803,817.1429,792.5641,773.6264
784.5055,826.4103,803.8461,754.68866
790.14655,815.12823,794.57874,752.27106
835.6777,818.7546,798.20514,796.99634
815.5311,832.4542,809.4872,786.9231
823.1868,802.6374,796.1905,782.8938
774.0293,804.2491,808.2784,753.8828
809.89014,815.12823,811.0989,764.7619
757.1062,796.99634,790.54944,762.74725
804.2491,809.89014,795.38464,793.7729
829.6337,824.7985,810.696,813.1135
814.3223,835.6777,816.7399,792.5641
803.0403,840.9158,815.9341,777.25275
810.293,842.9304,802.23444,791.75824
830.0366,826.0073,799.41394,799.41394
835.6777,817.9487,803.44324,795.38464
814.7253,826.0073,799.81683,778.46155
796.99634,830.84247,803.8461,770.80585
798.60803,825.2015,808.68134,782.49084
814.7253,822.381,809.0842,800.2198
847.3626,824.3956,807.0696,814.3223
861.4652,836.8865,813.91943,808.2784
832.4542,823.1868,820.7692,782.49084
814.7253,814.3223,821.978,788.5348
823.5897,832.0513,813.1135,811.0989
824.3956,822.7839,808.2784,813.1135
816.337,813.5165,814.7253,796.1905
794.17584,792.96704,813.1135,772.4176
813.91943,810.293,823.9927,797.3993
848.5714,823.9927,834.4689,834.0659
840.9158,811.9048,809.89014,828.022
803.44324,813.5165,775.2381,784.90845
761.9414,813.5165,772.4176,737.76556
760.7326,821.5751,788.1319,740.18317
805.4579,826.4103,796.1905,782.49084
840.5128,819.9634,791.3553,802.23444
842.9304,828.8278,798.60803,804.2491
817.5458,823.1868,804.65204,781.685
796.5934,800.6227,805.05493,770.40295
821.978,812.71063,812.71063,807.8755
853.8095,835.2747,809.89014,831.2454
846.1539,830.84247,802.6374,813.5165
805.8608,821.1722,809.4872,774.0293
772.4176,820.3663,804.65204,767.5824
801.8315,833.2601,803.44324,804.65204
843.3333,836.4835,810.293,831.6484
854.21246,823.1868,803.44324,830.84247
830.4396,822.381,799.41394,807.47253
777.25275,821.1722,797.3993,785.7143
784.5055,819.5604,804.2491,798.60803
840.9158,830.4396,813.5165,835.2747
858.24176,843.73627,805.4579,835.6777
837.6923,846.9597,801.4286,813.91943
821.5751,835.6777,809.89014,800.6227
830.84247,831.2454,814.7253,815.12823
846.55676,830.84247,812.71063,841.31866
847.3626,827.2161,812.3077,832.0513
817.1429,817.9487,804.2491,798.60803
792.96704,824.7985,803.0403,768.7912
811.50183,830.0366,805.4579,786.52014
847.76556,828.8278,808.2784,830.84247
857.4359,821.1722,813.91943,840.5128
839.304,809.89014,809.89014,818.7546
799.011,810.696,801.8315,785.7143
788.1319,814.3223,801.4286,786.9231
838.49817,827.2161,819.15753,832.8571
873.5531,844.1392,822.7839,853.00366
853.4066,833.663,806.6667,822.381
811.9048,818.7546,796.1905,788.1319
801.8315,820.7692,798.20514,797.8022
799.81683,808.2784,805.4579,826.0073
835.6777,804.65204,814.7253,849.7802
854.21246,819.5604,821.978,841.31866
815.5311,817.9487,817.1429,804.2491
805.4579,823.1868,813.91943,805.4579
843.73627,839.707,818.7546,845.34796
861.06226,832.8571,810.696,842.52747
842.52747,810.293,798.60803,808.2784
808.2784,796.1905,792.96704,784.10254
771.2088,802.6374,797.3993,782.49084
792.5641,802.23444,807.0696,810.293
859.0476,807.47253,819.15753,846.55676
875.56775,825.6044,818.7546,840.9158
830.0366,828.8278,802.23444,797.3993
778.86444,821.1722,794.57874,770.80585
827.2161,829.6337,797.3993,824.3956
832.8571,803.8461,797.8022,806.6667
787.72894,828.8278,800.2198,797.3993
826.4103,805.8608,805.05493,798.60803
799.81683,808.2784,801.4286,793.7729
784.10254,804.2491,801.8315,797.8022
817.1429,828.4249,810.696,812.71063
828.8278,823.1868,800.2198,800.6227
814.7253,819.5604,809.89014,782.8938
822.7839,845.7509,830.0366,796.5934
833.663,838.49817,822.381,795.38464
842.1245,817.1429,814.7253,821.1722
844.94507,818.3516,812.71063,828.022
818.7546,815.9341,804.65204,794.57874
792.5641,814.7253,801.4286,771.2088
803.44324,818.3516,807.0696,789.7436
830.0366,801.02563,809.4872,817.5458
822.381,802.6374,809.4872,801.02563
796.5934,813.91943,799.81683,773.6264
778.46155,815.5311,793.7729,759.12085
791.75824,822.381,813.1135,791.75824
838.9011,837.28937,828.8278,826.4103
828.4249,830.4396,823.9927,808.68134
792.96704,812.3077,809.89014,774.43225
740.989,796.1905,778.46155,758.315
800.6227,814.3223,809.0842,806.6667
851.39197,823.5897,823.1868,827.2161
758.71796,805.05493,782.0879,748.6447
785.7143,813.5165,813.91943,772.01465
828.8278,805.8608,819.5604,796.99634
814.3223,830.0366,816.7399,804.65204
811.9048,828.8278,815.9341,809.89014
774.0293,833.663,805.8608,782.49084
804.2491,840.9158,814.3223,808.68134
792.5641,823.9927,809.0842,777.25275
766.3736,815.5311,801.4286,759.12085
811.9048,799.011,825.2015,812.71063
826.4103,810.293,821.978,797.8022
779.67035,811.9048,810.696,788.5348
811.50183,831.6484,803.44324,774.43225
783.69965,829.6337,798.60803,764.7619
786.1172,831.2454,811.50183,790.14655
811.50183,831.2454,813.91943,815.5311
838.0952,835.2747,823.5897,823.1868
841.31866,842.1245,837.28937,792.1612
782.49084,822.381,826.4103,738.97437
755.89746,804.2491,827.2161,736.1539
774.43225,819.9634,831.2454,746.63007
789.7436,823.9927,817.1429,732.52747
786.52014,805.4579,801.8315,708.7546
771.6117,816.337,804.2491,709.5604
782.0879,825.2015,806.6667,731.31866
783.69965,808.2784,804.2491,740.58606
781.685,803.44324,805.4579,730.10986
785.7143,810.696,799.81683,713.5897
778.0586,813.1135,811.50183,716.4103
784.10254,817.5458,828.022,742.6007
803.44324,817.9487,817.1429,760.7326
826.4103,827.619,805.4579,764.35895
813.1135,822.381,805.05493,743.8095
766.3736,804.2491,807.8755,715.2015
765.9707,814.7253,817.9487,733.73627
830.4396,831.2454,828.022,782.49084
850.989,824.3956,815.9341,784.5055
799.011,810.293,806.26373,756.7033
755.09155,804.65204,805.8608,734.94507
767.5824,811.0989,805.4579,742.1978
803.44324,815.12823,810.293,772.8205
826.4103,815.5311,815.9341,783.2967
823.9927,806.6667,815.12823,772.01465
790.54944,800.2198,813.1135,753.0769
780.07324,799.41394,811.50183,766.77655
810.696,805.4579,809.89014,796.5934
833.663,802.23444,807.8755,796.99634
838.49817,801.8315,810.293,789.34064
807.47253,807.8755,805.8608,762.74725
778.46155,799.41394,798.60803,746.63007
794.57874,802.23444,796.5934,781.28204
824.3956,788.93774,787.326,807.0696
834.87177,774.43225,791.3553,800.6227
827.2161,811.9048,803.0403,787.72894
803.44324,824.3956,811.9048,781.28204
792.5641,803.0403,805.8608,794.17584
828.8278,818.7546,798.60803,808.68134
801.02563,792.96704,783.2967,772.4176
843.73627,821.978,793.36993,799.81683
779.67035,791.75824,794.57874,767.1795
816.337,820.3663,803.8461,798.20514
846.55676,822.7839,799.011,819.5604
844.5421,813.1135,801.8315,812.3077
813.5165,803.44324,797.8022,785.31134
793.7729,806.6667,788.93774,779.2674
803.8461,811.0989,794.57874,800.6227
826.4103,806.26373,808.68134,820.3663
826.8132,803.44324,807.8755,811.50183
818.7546,811.9048,817.9487,796.99634
831.2454,822.381,845.7509,810.696
832.4542,805.4579,844.94507,829.2308
832.0513,813.1135,820.7692,828.4249
815.9341,814.7253,800.6227,805.05493
803.44324,803.44324,788.1319,784.10254
784.10254,797.3993,793.36993,768.7912
784.5055,783.69965,811.0989,793.36993
838.9011,801.8315,824.3956,839.304
842.52747,807.0696,805.4579,827.619
801.02563,792.5641,780.87915,800.6227
791.3553,805.4579,798.20514,790.14655
807.8755,814.3223,813.91943,800.6227
822.381,812.3077,808.2784,819.5604
823.9927,811.50183,808.2784,827.2161
813.91943,804.2491,808.2784,813.91943
800.6227,805.05493,804.2491,787.72894
802.6374,811.9048,805.8608,797.3993
816.337,818.3516,816.337,829.2308
827.619,813.1135,808.68134,844.94507
824.7985,799.011,798.20514,822.7839
795.38464,800.2198,802.6374,791.3553
777.6557,799.011,805.4579,808.2784
801.8315,799.011,807.8755,842.9304
842.1245,820.3663,808.68134,849.7802
828.022,819.5604,804.65204,820.3663
809.89014,822.7839,805.05493,818.3516
823.1868,809.0842,797.8022,839.304
829.6337,811.50183,808.68134,856.2271
839.707,801.8315,789.7436,856.63007
832.4542,804.65204,800.6227,853.4066
803.0403,803.44324,796.99634,821.5751
774.83514,799.011,794.9817,811.50183
786.52014,799.011,805.8608,825.6044
837.6923,807.47253,813.1135,848.97437
832.8571,805.05493,805.4579,842.9304
792.96704,804.65204,797.8022,809.89014
787.326,810.293,801.4286,800.2198
800.6227,813.1135,806.6667,812.3077
834.4689,813.1135,809.89014,819.5604
846.55676,809.89014,807.8755,826.8132
813.5165,810.696,805.05493,809.4872
789.7436,821.5751,811.50183,799.81683
805.4579,827.619,823.9927,828.4249
818.7546,821.5751,821.978,856.2271
810.293,812.71063,810.293,848.97437
791.3553,804.2491,799.011,814.3223
771.2088,797.8022,793.7729,792.5641
770.80585,800.2198,796.5934,799.41394
804.65204,811.0989,797.8022,830.84247
823.5897,816.337,801.8315,838.49817
821.978,812.71063,815.12823,815.5311
805.4579,805.8608,815.5311,794.17584
799.011,806.26373,809.89014,810.696
815.9341,819.15753,809.89014,836.8865
812.71063,811.50183,798.20514,826.4103
776.8498,796.99634,795.78754,790.9524
756.7033,801.8315,804.2491,771.2088
757.50916,809.4872,805.05493,784.10254
791.75824,829.6337,812.71063,825.2015
799.81683,836.4835,818.7546,784.90845
834.87177,851.39197,825.6044,813.1135
779.67035,824.3956,811.50183,780.4762
821.5751,828.8278,817.9487,814.3223
795.78754,832.8571,812.3077,800.2198
818.7546,828.022,825.6044,807.8755
772.01465,836.4835,813.5165,770.80585
750.2564,842.1245,801.8315,767.98535
770,844.94507,809.0842,797.3993
787.326,834.87177,809.89014,811.9048
837.6923,850.58606,823.5897,840.5128
797.8022,818.3516,807.0696,804.65204
778.46155,822.381,815.9341,772.4176
758.71796,837.28937,818.3516,765.9707
787.326,837.6923,807.8755,790.14655
822.381,836.08057,801.02563,802.6374
830.0366,837.28937,814.3223,809.0842
815.5311,832.4542,817.5458,795.38464
813.5165,819.9634,813.5165,828.022
814.3223,801.8315,813.1135,821.1722
784.90845,807.47253,803.44324,792.96704
761.13556,812.71063,803.44324,788.5348
767.98535,812.3077,806.6667,765.56775
761.9414,813.5165,802.6374,774.43225
770,813.91943,798.60803,793.36993
808.68134,822.7839,801.02563,823.1868
821.1722,820.3663,804.2491,817.9487
813.91943,816.7399,803.44324,801.4286
812.3077,825.6044,815.5311,800.2198
821.978,826.4103,823.9927,819.15753
834.0659,814.7253,815.9341,823.5897
831.2454,813.1135,807.8755,826.8132
812.71063,816.7399,804.65204,815.12823
800.2198,822.7839,801.8315,792.1612
803.0403,822.7839,809.0842,814.3223
821.978,812.71063,812.71063,842.52747
831.2454,807.8755,809.89014,838.49817
834.0659,817.9487,811.50183,819.9634
822.7839,827.619,816.337,803.8461
825.6044,826.4103,824.3956,819.5604
858.24176,825.2015,821.1722,845.7509
858.24176,819.15753,797.8022,836.08057
845.7509,819.5604,799.011,818.7546
832.0513,832.4542,815.5311,809.4872
823.1868,833.663,819.15753,829.6337
846.9597,828.022,821.1722,851.79486
858.6447,821.5751,821.5751,855.82416
843.3333,813.1135,811.0989,836.4835
796.99634,809.0842,794.9817,803.44324
766.3736,809.4872,795.38464,796.1905
796.99634,808.68134,804.2491,824.3956
830.0366,811.50183,807.47253,842.1245
844.5421,821.5751,807.47253,827.2161
829.2308,818.7546,807.8755,810.293
801.4286,814.7253,806.26373,805.8608
813.5165,815.12823,807.8755,824.3956
855.42126,829.2308,816.7399,847.3626
861.8681,836.4835,816.7399,838.0952
811.50183,805.4579,813.91943,799.011
772.8205,797.3993,803.44324,784.90845
787.326,802.6374,796.99634,810.696
815.12823,813.91943,807.8755,824.7985
816.7399,828.022,817.5458,822.381
820.7692,836.8865,821.1722,809.89014
833.2601,848.1685,819.9634,797.8022
826.0073,830.84247,815.9341,813.5165
832.0513,821.978,811.50183,828.8278
863.8828,832.0513,814.3223,833.2601
838.0952,816.337,809.89014,800.6227
799.011,813.5165,803.44324,778.86444
810.293,813.5165,807.8755,802.23444
843.73627,816.7399,819.15753,833.2601
860.65936,825.2015,825.6044,842.52747
839.707,821.978,821.978,819.15753
802.6374,813.1135,816.7399,796.99634
809.89014,819.15753,819.15753,811.0989
858.24176,835.6777,821.5751,838.49817
855.82416,831.2454,817.5458,837.6923
817.5458,829.2308,818.7546,807.0696
790.54944,820.3663,811.50183,784.90845
774.83514,813.1135,806.26373,780.4762
792.1612,827.619,816.7399,801.02563
808.68134,820.3663,808.68134,817.5458
797.8022,808.68134,801.8315,802.6374
794.57874,821.1722,819.5604,783.2967
795.78754,834.0659,833.2601,790.14655
797.8022,834.4689,832.4542,812.3077
810.696,830.0366,827.2161,814.3223
810.696,825.6044,819.5604,787.72894
776.8498,816.337,819.5604,766.3736
765.16486,821.1722,821.978,785.7143
801.8315,824.3956,822.7839,823.5897
809.4872,816.7399,812.71063,811.50183
794.17584,815.9341,801.02563,780.07324
770.40295,818.3516,809.0842,759.12085
764.35895,824.7985,819.9634,762.74725
793.36993,828.022,813.5165,791.3553
804.65204,813.1135,807.0696,806.26373
810.293,813.1135,807.47253,806.26373
796.1905,822.381,808.2784,786.52014
771.2088,828.4249,812.71063,780.4762
788.93774,825.6044,818.3516,809.4872
817.1429,819.9634,827.2161,834.0659
805.4579,827.619,820.7692,815.9341
758.315,813.5165,804.2491,782.0879
724.0659,802.23444,796.99634,778.86444
757.9121,813.1135,805.8608,809.0842
810.696,820.7692,812.71063,836.8865
830.4396,815.5311,806.26373,835.6777
820.7692,811.0989,808.68134,809.89014
820.3663,831.2454,821.978,803.8461
839.304,840.9158,823.1868,832.8571
845.34796,829.2308,814.7253,845.34796
847.76556,814.7253,802.23444,841.7216
821.978,789.7436,795.38464,823.5897
784.90845,796.1905,806.6667,804.2491
785.7143,805.8608,812.3077,819.15753
823.9927,808.68134,811.0989,848.97437
845.7509,809.89014,811.50183,857.4359
811.0989,807.8755,806.6667,822.381
778.0586,812.71063,803.8461,795.78754
805.8608,822.7839,811.9048,820.3663
838.9011,827.2161,815.9341,840.10986
841.31866,822.7839,812.71063,829.6337
805.8608,811.9048,803.44324,798.20514
775.2381,800.6227,795.38464,774.83514
774.83514,796.1905,796.5934,786.52014
786.9231,794.57874,801.4286,813.91943
805.4579,796.99634,803.44324,827.619
814.7253,800.6227,801.4286,814.3223
799.011,799.011,801.02563,789.7436
799.81683,804.2491,809.4872,813.1135
843.3333,811.0989,822.381,859.45056
877.1795,817.9487,823.9927,871.13556
866.7033,818.7546,811.50183,847.76556
849.7802,817.5458,817.1429,836.4835
849.3773,826.0073,819.5604,842.52747
827.619,806.26373,797.3993,836.08057
809.4872,793.7729,791.75824,831.2454
810.696,794.57874,791.75824,823.1868
788.93774,793.7729,786.9231,802.6374
778.46155,795.78754,792.1612,796.5934
813.91943,780.07324,794.9817,819.5604
836.8865,795.78754,795.78754,840.9158
848.5714,819.5604,809.4872,840.10986
850.58606,825.2015,814.3223,817.1429
830.4396,825.2015,805.4579,816.337
814.7253,815.9341,805.8608,831.6484
830.4396,817.5458,813.1135,839.707
829.6337,805.8608,811.0989,824.3956
806.6667,806.26373,811.0989,807.47253
803.44324,818.7546,821.1722,809.0842
807.0696,806.26373,826.0073,826.8132
823.5897,807.0696,816.337,840.10986
832.4542,807.0696,797.8022,828.8278
817.9487,796.1905,793.36993,807.8755
803.44324,805.4579,793.7729,803.44324
801.4286,810.696,801.8315,828.4249
840.9158,807.0696,816.337,853.4066
867.50916,808.2784,815.12823,857.8388
852.6007,817.5458,809.89014,832.8571
820.3663,810.293,812.3077,804.2491
811.50183,807.47253,817.1429,831.6484
838.49817,826.4103,815.5311,855.82416
848.1685,830.0366,805.4579,837.28937
823.1868,820.3663,794.17584,809.4872
765.9707,803.0403,788.5348,786.52014
776.04395,802.6374,806.6667,814.7253
856.2271,821.978,833.663,857.03296
859.0476,803.0403,820.3663,851.39197
811.9048,788.5348,800.6227,819.15753
778.46155,804.65204,789.7436,780.4762
783.69965,817.5458,789.34064,782.8938
820.3663,817.1429,800.6227,819.5604
805.05493,801.02563,797.8022,819.5604
775.2381,799.41394,797.8022,803.44324
827.619,809.4872,802.23444,832.8571
798.60803,801.02563,805.8608,830.4396
767.98535,801.02563,805.05493,811.50183
830.4396,805.05493,808.2784,838.0952
834.0659,810.293,812.71063,838.0952
818.3516,813.91943,814.7253,811.0989
794.17584,817.5458,812.3077,799.011
809.0842,816.337,811.0989,825.2015
838.0952,800.6227,814.7253,829.6337
833.2601,796.99634,814.7253,810.696
805.8608,792.1612,816.337,796.5934
784.5055,788.5348,818.3516,792.96704
775.64105,792.1612,815.5311,806.6667
804.2491,808.2784,821.5751,828.022
821.1722,815.12823,815.5311,830.0366
791.3553,814.7253,809.89014,803.8461
764.35895,826.4103,816.337,776.04395
780.4762,810.696,812.71063,812.71063
763.5531,823.1868,820.7692,785.7143
790.54944,807.8755,806.6667,808.68134
770.80585,807.8755,806.26373,768.7912
736.55676,794.17584,799.41394,750.65936
747.4359,790.14655,802.23444,789.7436
777.25275,794.9817,806.6667,809.89014
790.9524,801.4286,805.4579,799.011
804.65204,814.3223,809.4872,788.5348
794.17584,817.9487,812.3077,781.685
775.2381,809.4872,810.293,797.3993
788.5348,813.5165,824.3956,820.3663
831.6484,826.0073,839.304,834.87177
832.0513,822.381,827.2161,821.1722
780.4762,813.91943,808.2784,784.5055
765.9707,805.8608,805.4579,778.0586
786.9231,796.5934,810.293,799.81683
797.3993,801.8315,806.26373,809.0842
790.54944,809.89014,804.65204,788.93774
761.53845,820.7692,806.26373,768.3883
755.4945,819.5604,808.68134,780.07324
790.54944,801.4286,811.0989,801.02563
810.293,812.3077,805.05493,810.696
801.4286,817.9487,801.4286,799.011
783.69965,799.41394,809.4872,774.43225
790.9524,817.9487,815.12823,812.3077
763.95605,799.81683,809.4872,778.86444
836.8865,833.2601,820.7692,834.0659
836.4835,822.381,822.381,817.1429
790.14655,807.8755,818.3516,781.685
763.1502,803.8461,804.2491,782.0879
779.67035,805.4579,797.8022,801.4286
803.44324,811.0989,800.6227,808.2784
807.0696,805.8608,804.65204,805.05493
784.10254,791.75824,804.2491,786.52014
768.3883,800.6227,805.8608,786.52014
794.17584,811.9048,807.47253,813.1135
828.022,812.3077,809.89014,828.022
839.707,822.381,805.8608,819.15753
843.73627,832.8571,803.44324,803.8461
815.5311,820.7692,804.65204,803.8461
808.2784,811.50183,803.8461,823.5897
807.8755,802.23444,794.17584,819.9634
791.3553,793.7729,783.69965,799.41394
783.2967,796.99634,782.0879,776.4469
786.1172,811.9048,799.81683,779.2674
800.2198,815.12823,813.1135,816.337
827.619,811.9048,814.3223,842.9304
851.39197,803.44324,811.0989,832.0513
837.28937,805.05493,807.0696,810.293
820.7692,807.0696,810.696,809.0842
838.0952,823.9927,824.3956,832.0513
852.1978,821.5751,827.2161,857.4359
845.7509,800.2198,817.5458,861.06226
821.5751,807.47253,809.89014,829.6337
790.14655,811.0989,803.44324,802.6374
790.9524,796.99634,799.011,817.9487
824.3956,806.26373,799.81683,847.76556
841.31866,821.5751,808.68134,852.1978
827.2161,800.2198,807.8755,825.6044
797.3993,787.326,799.011,798.20514
793.7729,807.0696,805.05493,818.7546
823.5897,817.1429,812.3077,842.52747
842.1245,819.15753,802.6374,840.9158
833.2601,812.3077,794.57874,821.978
808.2784,800.6227,805.4579,805.8608
800.6227,800.6227,814.3223,817.1429
819.15753,805.4579,810.696,836.4835
852.6007,824.7985,814.7253,855.82416
859.45056,820.7692,813.5165,850.18317
831.6484,798.60803,802.23444,821.5751
820.3663,795.38464,803.8461,838.9011
820.3663,797.8022,805.05493,821.1722
821.1722,783.2967,791.3553,850.58606
827.2161,791.75824,796.99634,848.97437
821.5751,811.9048,806.6667,820.3663
811.9048,814.7253,809.4872,818.3516
814.7253,813.91943,804.65204,840.9158
817.9487,806.26373,805.05493,846.9597
811.50183,795.38464,807.0696,827.2161
805.8608,803.44324,807.8755,811.9048
811.0989,812.71063,809.4872,810.293
821.978,810.696,807.47253,828.4249
823.9927,807.47253,807.8755,842.52747
812.71063,794.9817,805.05493,820.3663
789.7436,762.3443,800.2198,792.1612
787.326,780.07324,811.0989,784.90845
820.7692,823.1868,821.1722,818.3516
835.6777,815.12823,805.8608,829.2308
819.9634,802.6374,796.1905,816.337
815.5311,807.0696,806.6667,816.7399
810.696,813.5165,815.9341,816.7399
829.6337,813.1135,827.2161,842.1245
864.68866,821.1722,832.0513,870.7326
844.5421,813.91943,813.5165,855.42126
815.5311,801.4286,801.8315,830.0366
786.52014,801.8315,799.41394,816.7399
770,802.6374,799.011,818.3516
804.65204,799.011,801.02563,836.4835
826.4103,803.0403,799.81683,842.52747
803.8461,800.6227,799.41394,816.337
772.01465,795.78754,797.8022,788.93774
777.25275,809.0842,798.60803,811.0989
811.50183,813.91943,803.44324,842.52747
837.6923,812.71063,811.9048,834.0659
814.3223,811.0989,809.0842,809.4872
781.685,809.4872,807.47253,795.38464
772.01465,807.8755,808.2784,792.96704
780.4762,807.47253,802.23444,807.47253
826.4103,823.5897,815.12823,831.6484
844.94507,826.8132,833.663,824.7985
802.23444,801.8315,813.91943,782.8938
768.7912,788.93774,796.1905,775.2381
783.2967,794.17584,801.4286,805.05493
801.4286,807.0696,799.011,807.8755
797.8022,810.293,791.75824,799.011
790.54944,817.1429,796.5934,795.38464
779.2674,816.337,803.0403,786.52014
784.90845,808.2784,809.4872,796.1905
812.71063,811.9048,810.696,815.12823
824.7985,811.0989,816.7399,814.7253
797.3993,794.9817,811.50183,780.4762
769.19415,784.5055,802.23444,769.19415
780.4762,803.0403,813.1135,804.65204
801.4286,820.7692,813.91943,817.5458
801.8315,826.8132,808.68134,801.02563
781.685,817.5458,805.8608,776.04395
770,807.47253,805.05493,771.6117
775.2381,795.78754,810.293,794.17584
795.38464,790.14655,812.71063,805.05493
815.12823,797.3993,815.9341,813.1135
811.0989,796.1905,821.978,803.44324
794.57874,810.696,823.5897,791.75824
788.93774,819.9634,814.3223,806.6667
805.05493,827.619,806.6667,813.1135
801.8315,812.71063,788.93774,780.4762
753.0769,797.8022,791.75824,770.80585
757.1062,821.5751,798.20514,791.75824
799.81683,831.6484,805.8608,818.3516
817.9487,827.619,808.68134,815.9341
819.9634,839.707,794.9817,794.9817
803.8461,825.6044,801.8315,788.93774
767.1795,817.5458,797.8022,765.56775
769.59705,813.91943,801.8315,788.5348
811.9048,827.2161,809.0842,833.2601
829.6337,830.0366,813.91943,834.0659
807.47253,826.8132,810.293,806.26373
788.93774,832.4542,814.7253,789.7436
774.83514,816.337,813.5165,794.9817
769.59705,804.65204,809.89014,812.3077
792.96704,813.91943,817.5458,813.91943
796.5934,817.5458,810.696,784.5055
759.5238,813.5165,800.6227,755.09155
748.6447,810.293,807.0696,770.80585
803.0403,827.2161,810.696,810.293
834.87177,826.4103,807.47253,826.4103
822.7839,811.0989,807.47253,808.2784
797.8022,819.15753,808.68134,789.7436
785.7143,833.663,809.4872,801.8315
807.47253,835.6777,801.4286,827.619
833.663,823.9927,803.8461,835.2747
834.4689,813.1135,809.4872,826.4103
813.1135,815.9341,799.011,807.0696
795.38464,822.7839,795.38464,800.6227
812.3077,820.3663,796.1905,824.3956
828.4249,801.8315,790.9524,831.6484
832.0513,804.2491,797.8022,825.2015
832.4542,808.68134,805.8608,813.91943
804.65204,802.23444,805.4579,803.0403
805.8608,818.3516,810.293,826.8132
832.8571,813.91943,815.5311,843.3333
834.4689,807.0696,812.3077,815.5311
815.9341,811.9048,800.2198,781.28204
780.4762,798.20514,800.2198,782.0879
778.46155,803.8461,809.89014,809.0842
818.7546,823.1868,813.91943,831.6484
824.3956,820.3663,808.68134,821.5751
789.7436,800.6227,799.011,793.7729
792.96704,805.4579,811.9048,793.7729
808.2784,806.26373,803.44324,813.1135
806.6667,808.68134,796.5934,788.1319
797.3993,817.5458,803.0403,793.36993
813.91943,810.293,816.7399,823.5897
822.7839,783.69965,816.7399,835.6777
822.381,813.91943,828.022,823.1868
828.8278,803.0403,811.0989,827.619
808.2784,800.2198,817.9487,832.4542
826.0073,826.4103,819.15753,808.68134
799.81683,829.2308,817.5458,792.5641
788.93774,824.3956,816.337,799.81683
792.1612,817.1429,817.5458,814.3223
805.8608,807.47253,808.68134,817.5458
793.36993,790.14655,801.02563,795.38464
767.5824,793.36993,801.02563,780.87915
767.98535,809.0842,803.44324,783.69965
785.7143,809.89014,809.89014,797.3993
811.0989,813.5165,820.3663,818.7546
806.6667,804.65204,821.5751,809.4872
787.326,809.89014,817.1429,776.4469
765.56775,821.1722,815.5311,773.22345
739.7802,809.0842,805.05493,779.2674
759.92676,803.0403,800.6227,788.5348
790.54944,808.68134,799.41394,792.96704
778.86444,802.23444,801.02563,766.77655
762.3443,793.36993,812.3077,775.2381
787.326,819.5604,823.9927,814.3223
820.7692,826.0073,825.2015,835.2747
823.5897,811.9048,813.5165,826.8132
799.81683,820.7692,803.0403,796.99634
793.36993,833.2601,805.4579,807.47253
797.3993,813.91943,811.50183,825.6044
791.75824,800.2198,810.696,820.3663
788.1319,794.9817,797.8022,801.4286
772.01465,800.6227,783.2967,761.13556
764.7619,826.0073,788.5348,764.35895
778.86444,830.84247,804.2491,798.60803
801.4286,816.337,810.293,814.7253
811.9048,815.12823,807.0696,812.71063
796.99634,822.7839,806.6667,794.9817
790.54944,835.6777,813.5165,787.326
783.2967,826.4103,811.0989,794.9817
793.7729,807.8755,807.0696,813.91943
798.20514,804.65204,797.3993,807.47253
775.64105,800.2198,791.3553,780.07324
755.89746,796.1905,797.8022,765.16486
757.1062,786.1172,801.02563,789.34064
793.36993,799.011,804.65204,821.5751
840.5128,819.15753,810.293,826.4103
835.2747,817.9487,807.47253,813.1135
796.5934,812.71063,808.2784,797.8022
794.9817,813.1135,809.0842,808.68134
844.1392,824.7985,808.2784,838.9011
865.89746,815.5311,807.8755,842.52747
840.10986,799.81683,805.4579,813.5165
811.50183,807.0696,803.44324,798.20514
809.0842,818.3516,807.8755,818.7546
819.15753,817.1429,811.50183,853.8095
823.1868,803.0403,811.9048,844.94507
811.9048,814.3223,816.7399,814.3223
792.96704,817.1429,818.3516,809.0842
797.3993,819.5604,815.5311,802.23444
807.47253,819.9634,825.2015,827.619
809.0842,818.7546,810.293,827.2161
797.8022,821.5751,797.3993,806.6667
776.8498,813.91943,799.41394,773.6264
763.5531,804.2491,798.20514,776.4469
785.31134,805.05493,799.81683,808.2784
807.47253,805.05493,799.011,821.5751
813.5165,796.5934,793.36993,803.44324
802.6374,788.93774,802.6374,781.28204
798.20514,798.20514,815.12823,798.20514
825.2015,810.293,813.91943,827.2161
830.0366,818.3516,807.0696,826.4103
828.8278,823.5897,811.50183,822.7839
820.3663,812.71063,810.696,811.0989
797.8022,803.8461,809.0842,799.011
813.91943,808.2784,815.12823,828.4249
832.0513,805.4579,811.9048,843.3333
819.15753,800.2198,804.2491,832.0513
808.68134,794.9817,809.4872,813.5165
790.9524,775.64105,809.0842,800.2198
805.8608,792.1612,804.65204,818.3516
837.6923,812.3077,807.47253,828.8278
839.304,811.9048,801.8315,814.3223
821.1722,810.293,806.26373,803.44324
805.4579,807.8755,815.5311,798.60803
809.89014,805.8608,804.2491,811.0989
832.0513,807.0696,805.05493,832.0513
835.6777,793.7729,807.47253,830.0366
796.5934,779.67035,794.17584,794.17584
767.98535,782.8938,792.5641,773.22345
795.38464,805.8608,797.8022,806.6667
824.7985,808.2784,795.78754,832.0513
837.6923,794.17584,794.57874,835.2747
827.2161,800.2198,804.65204,817.9487
809.89014,807.0696,811.9048,803.0403
819.9634,804.65204,812.3077,823.5897
842.1245,803.44324,806.26373,849.7802
853.8095,805.4579,800.2198,847.3626
844.5421,803.0403,803.0403,821.1722
819.9634,789.7436,809.4872,805.4579
822.381,792.1612,814.3223,817.9487
837.6923,800.2198,815.12823,839.707
839.707,797.3993,809.0842,842.9304
832.8571,796.1905,807.0696,820.7692
808.68134,789.7436,804.65204,794.9817
803.44324,787.326,806.26373,803.44324
823.5897,788.93774,812.3077,828.4249
838.49817,799.41394,815.12823,838.0952
843.3333,809.4872,816.7399,824.7985
828.8278,810.696,817.5458,809.0842
801.02563,815.5311,813.91943,807.47253
804.65204,806.6667,807.0696,817.1429
818.7546,800.2198,806.26373,828.4249
809.0842,793.36993,802.23444,814.3223
786.1172,778.0586,793.36993,788.93774
782.8938,786.9231,802.23444,795.38464
799.41394,792.96704,805.05493,823.1868
828.8278,800.6227,797.3993,843.73627
848.97437,801.02563,805.05493,829.6337
826.4103,792.1612,812.3077,805.4579
806.26373,804.2491,808.68134,810.293
814.7253,803.0403,806.6667,825.2015
836.4835,801.4286,807.0696,844.1392
842.9304,804.2491,807.0696,844.94507
825.2015,799.81683,807.8755,816.337
807.0696,806.6667,806.26373,796.5934
818.7546,808.68134,805.4579,814.3223
846.55676,797.8022,810.696,834.4689
857.8388,799.011,812.71063,835.2747
826.4103,801.4286,807.0696,817.1429
808.2784,805.8608,819.15753,816.337
835.2747,816.337,832.4542,843.73627
839.304,812.3077,820.3663,846.55676
830.84247,801.02563,808.68134,840.5128
827.2161,807.47253,809.89014,824.3956
793.7729,802.6374,809.89014,799.41394
788.93774,797.3993,815.5311,809.89014
823.5897,809.89014,816.337,837.6923
849.3773,807.8755,809.89014,844.5421
846.9597,805.05493,817.9487,827.2161
804.2491,803.44324,816.337,806.6667
782.8938,794.57874,796.99634,811.9048
810.293,803.44324,792.5641,831.6484
834.0659,809.89014,794.9817,825.6044
827.619,801.02563,793.36993,807.8755
802.6374,796.1905,793.7729,796.1905
798.20514,806.26373,798.20514,807.0696
817.1429,801.02563,800.2198,818.7546
827.2161,796.1905,794.9817,822.7839
816.7399,796.5934,797.3993,817.5458
797.3993,776.04395,803.44324,792.5641
796.99634,782.49084,808.68134,793.36993
802.6374,812.3077,816.337,821.978
823.5897,830.0366,815.9341,838.49817
836.08057,821.1722,807.47253,815.9341
807.0696,806.6667,800.6227,781.685
786.9231,803.0403,799.011,791.3553
809.89014,795.78754,809.89014,826.8132
863.0769,797.3993,821.5751,851.39197
865.4945,812.3077,815.9341,843.3333
812.71063,805.05493,796.1905,806.6667
789.34064,799.81683,788.5348,803.8461
805.4579,804.2491,798.20514,836.08057
822.381,806.26373,798.60803,846.9597
830.4396,812.3077,798.60803,842.52747
822.7839,813.1135,806.6667,825.6044
795.78754,808.68134,803.0403,825.2015
818.3516,794.57874,811.9048,831.6484
836.08057,801.8315,817.5458,829.6337
799.81683,814.3223,802.23444,813.5165
823.1868,809.0842,817.5458,812.3077
801.02563,810.293,810.293,790.14655
789.7436,815.9341,805.8608,799.011
790.54944,818.7546,811.9048,817.5458
799.41394,820.3663,817.9487,813.5165
783.69965,810.696,811.50183,783.69965
763.1502,795.38464,808.2784,760.7326
777.25275,805.4579,807.47253,782.49084
823.1868,819.15753,807.0696,811.50183
850.18317,826.0073,811.0989,818.3516
811.9048,815.5311,808.68134,782.8938
757.50916,798.60803,802.6374,754.2857
765.16486,808.68134,809.4872,783.69965
791.75824,805.8608,816.337,802.6374
790.14655,804.65204,811.9048,796.1905
792.1612,813.91943,806.6667,786.9231
783.2967,810.696,805.4579,777.25275
763.95605,791.3553,807.8755,782.49084
785.7143,783.2967,813.1135,801.8315
810.696,803.0403,809.0842,810.293
803.0403,806.26373,808.68134,793.36993
784.10254,796.99634,815.9341,759.92676
766.77655,805.4579,812.71063,758.315
786.9231,810.696,808.2784,801.4286
809.0842,808.68134,811.9048,809.0842
803.0403,804.2491,809.0842,785.7143
779.67035,794.9817,800.2198,763.1502
777.25275,801.02563,816.337,776.04395
782.49084,795.38464,827.619,804.2491
766.3736,778.86444,811.50183,805.05493
773.22345,772.8205,806.6667,790.14655
793.7729,794.57874,818.3516,791.75824
788.1319,811.0989,818.3516,800.2198
785.7143,794.9817,806.6667,805.05493
812.71063,793.36993,800.6227,808.2784
828.4249,806.26373,805.4579,811.50183
812.71063,802.6374,804.2491,791.75824
779.67035,792.1612,797.8022,774.43225
779.67035,788.5348,796.1905,802.23444
808.68134,791.75824,794.17584,826.0073
823.9927,797.3993,796.5934,823.5897
827.2161,792.96704,802.23444,802.23444
820.3663,786.52014,805.4579,798.20514
824.3956,786.9231,809.0842,826.4103
833.663,797.8022,805.8608,833.663
846.1539,809.0842,806.26373,823.1868
830.84247,800.2198,804.2491,807.8755
801.4286,792.5641,796.1905,799.011
813.91943,802.23444,806.26373,821.1722
836.08057,810.293,814.3223,840.9158
837.28937,805.05493,801.4286,832.8571
817.5458,794.57874,796.99634,809.0842
794.9817,798.20514,798.60803,789.7436
792.96704,794.57874,798.20514,801.02563
808.2784,786.52014,800.2198,827.2161
821.5751,792.1612,805.4579,833.2601
809.4872,814.3223,807.8755,810.696
832.8571,821.1722,816.337,838.0952
852.1978,819.5604,814.7253,865.09155
840.9158,786.9231,796.5934,829.2308
803.8461,784.90845,792.5641,805.8608
789.34064,800.6227,795.38464,822.381
808.68134,798.60803,798.60803,838.9011
814.7253,795.38464,807.8755,814.7253
837.6923,798.20514,804.65204,839.304
855.0183,813.5165,802.6374,859.0476
832.0513,800.2198,799.81683,829.2308
816.337,801.4286,798.60803,809.89014
819.15753,811.50183,813.5165,817.1429
818.3516,810.293,813.91943,834.87177
810.293,801.8315,803.8461,818.7546
817.1429,804.65204,803.44324,840.5128
806.6667,804.2491,807.0696,795.78754
796.5934,804.65204,810.696,806.6667
816.337,814.7253,824.3956,841.7216
827.2161,817.1429,817.9487,845.7509
795.38464,796.99634,793.36993,810.293
770.40295,783.69965,782.49084,778.46155
763.95605,784.10254,788.5348,784.90845
784.10254,783.69965,787.326,815.12823
813.1135,777.6557,791.75824,830.0366
824.3956,787.326,799.81683,822.7839
816.337,795.78754,800.6227,804.65204
800.6227,792.1612,804.65204,803.44324
805.4579,805.05493,806.6667,820.3663
820.3663,796.99634,803.8461,837.6923
826.8132,791.3553,805.05493,839.304
808.2784,798.60803,803.44324,811.0989
782.8938,800.2198,799.81683,790.14655
796.99634,802.6374,803.44324,812.71063
810.293,800.2198,805.05493,830.0366
815.5311,806.6667,807.0696,817.1429
801.8315,800.2198,801.02563,781.685
761.13556,786.9231,790.54944,751.4652
744.61536,783.69965,788.5348,763.1502
782.49084,798.20514,804.2491,802.23444
828.4249,822.381,821.978,817.1429
808.68134,812.3077,805.4579,785.31134
743.8095,781.28204,781.28204,740.58606
770,783.2967,799.011,797.3993
726.8865,772.8205,779.2674,752.27106
794.57874,794.9817,808.68134,800.2198
781.28204,805.05493,803.44324,776.4469
771.6117,805.4579,808.2784,764.7619
800.2198,805.05493,804.2491,805.05493
795.38464,803.0403,803.0403,783.69965
770.80585,796.99634,803.44324,768.7912
784.10254,803.0403,797.3993,790.9524
791.75824,807.0696,805.8608,768.3883
788.93774,791.3553,811.0989,784.90845
781.28204,782.49084,807.8755,798.60803
787.326,796.5934,805.8608,798.20514
794.9817,814.7253,810.696,779.2674
780.87915,812.3077,805.4579,766.77655
767.1795,805.05493,806.6667,782.49084
776.8498,805.4579,810.696,797.8022
786.52014,800.2198,804.65204,792.1612
780.4762,798.20514,785.7143,770
762.3443,791.75824,775.64105,758.71796
757.9121,784.90845,801.4286,772.01465
792.5641,799.011,817.9487,801.8315
828.4249,811.0989,821.1722,827.2161
812.3077,801.4286,813.91943,813.1135
794.57874,801.8315,804.65204,780.4762
788.1319,794.17584,799.41394,795.38464
776.04395,798.60803,797.8022,764.7619
827.619,803.8461,816.7399,830.0366
830.0366,804.2491,815.5311,817.9487
807.47253,799.81683,796.1905,785.7143
776.8498,789.7436,784.10254,768.3883
775.64105,794.17584,788.1319,790.9524
802.6374,802.6374,797.3993,814.3223
834.4689,809.89014,800.6227,813.91943
841.7216,815.5311,796.5934,801.02563
820.7692,801.8315,801.4286,793.7729
812.71063,810.293,809.0842,809.4872
823.5897,817.9487,805.4579,822.381
820.3663,793.7729,803.8461,813.1135
805.05493,794.57874,806.6667,791.3553
786.1172,809.89014,803.44324,774.83514
787.326,811.0989,802.6374,797.3993
817.9487,810.696,808.2784,823.5897
833.663,808.68134,809.0842,819.9634
822.381,803.44324,801.02563,792.96704
799.81683,796.1905,792.1612,776.04395
791.75824,789.34064,794.17584,788.5348
810.293,792.1612,798.20514,819.9634
829.2308,795.38464,799.41394,833.663
821.978,797.3993,798.60803,813.5165
807.47253,804.2491,795.78754,798.60803
810.293,807.0696,803.8461,816.7399
832.0513,810.696,811.50183,842.52747
855.82416,793.36993,799.81683,833.663
819.5604,790.9524,796.99634,796.5934
857.4359,810.293,802.23444,852.1978
803.8461,803.0403,801.8315,813.91943
826.4103,815.5311,810.293,846.55676
850.58606,818.3516,807.8755,847.3626
855.42126,819.9634,810.293,844.1392
826.0073,813.91943,805.8608,819.5604
803.8461,811.50183,804.2491,805.05493
840.10986,813.5165,811.0989,834.4689
863.47986,788.93774,815.12823,852.1978
837.28937,794.57874,809.4872,830.0366
807.8755,794.57874,803.0403,807.47253
797.8022,780.07324,805.05493,809.0842
807.0696,790.9524,809.0842,828.4249
823.5897,817.5458,816.337,845.34796
854.61536,836.4835,815.9341,843.3333
848.1685,814.7253,804.2491,821.978
805.4579,792.1612,793.36993,798.60803
801.02563,784.5055,794.57874,805.05493
825.2015,786.52014,799.41394,834.0659
835.2747,790.14655,801.02563,838.0952
811.50183,788.5348,799.011,806.26373
799.41394,799.41394,803.44324,802.6374
815.5311,803.8461,811.0989,833.663
820.3663,792.5641,808.2784,844.5421
811.50183,787.72894,801.8315,829.2308
806.26373,794.17584,802.23444,811.9048
800.2198,798.20514,811.50183,803.0403
790.9524,790.9524,808.68134,808.68134
809.4872,794.9817,811.9048,833.2601
819.9634,796.99634,810.293,840.5128
794.9817,787.326,798.60803,807.47253
765.9707,776.4469,797.3993,781.28204
775.64105,796.99634,806.26373,799.41394
812.3077,812.3077,810.696,821.5751
807.0696,788.5348,795.78754,807.47253
785.31134,788.93774,786.52014,775.2381
772.4176,806.6667,794.9817,764.7619
777.6557,801.4286,802.23444,784.10254
808.2784,801.4286,800.6227,816.7399
835.6777,812.71063,799.41394,827.619
816.337,808.68134,806.6667,807.0696
790.9524,796.1905,807.0696,791.3553
786.1172,794.57874,807.0696,794.57874
802.6374,803.8461,807.0696,810.696
807.0696,799.011,801.02563,811.50183
796.1905,795.38464,802.6374,796.1905
791.75824,805.05493,808.2784,784.90845
786.1172,805.05493,813.1135,793.7729
786.1172,798.20514,809.4872,808.2784
801.8315,805.4579,792.5641,795.38464
792.5641,797.8022,800.2198,813.1135
782.49084,798.60803,789.7436,759.12085
756.30035,792.1612,799.41394,762.3443
776.4469,798.20514,805.4579,789.7436
801.4286,795.38464,801.4286,801.8315
803.8461,793.36993,797.8022,789.7436
792.5641,796.1905,797.8022,769.19415
783.2967,809.89014,804.65204,766.3736
797.8022,813.91943,814.3223,791.3553
791.75824,792.96704,812.3077,800.6227
772.8205,783.69965,798.60803,782.0879
773.22345,778.46155,796.5934,762.74725
780.4762,786.52014,801.02563,761.9414
785.31134,802.23444,798.60803,776.04395
795.38464,801.8315,809.89014,794.17584
807.8755,803.8461,816.7399,799.81683
780.87915,792.96704,800.6227,766.77655
750.65936,781.28204,801.02563,752.27106
752.27106,784.5055,798.60803,767.98535
763.95605,782.49084,797.8022,784.10254
782.49084,791.3553,805.8608,785.7143
787.72894,804.65204,808.2784,781.28204
762.74725,791.3553,807.8755,765.9707
749.45056,793.36993,810.293,764.7619
793.36993,829.6337,822.381,793.36993
814.3223,817.1429,819.9634,796.99634
783.69965,780.87915,806.26373,760.32965
764.35895,786.9231,803.44324,748.24176
764.7619,795.38464,803.44324,769.59705
784.90845,800.2198,806.26373,786.1172
821.5751,804.65204,807.0696,796.1905
799.81683,779.2674,801.02563,780.4762
753.0769,763.95605,796.99634,747.8388
763.5531,780.07324,810.293,762.3443
809.0842,799.81683,822.7839,808.68134
842.1245,796.99634,821.5751,824.7985
848.5714,788.93774,815.5311,811.9048
801.8315,762.3443,811.0989,790.54944
767.98535,759.5238,817.1429,788.1319
793.36993,790.9524,811.0989,810.696
818.3516,800.6227,805.4579,822.381
821.1722,807.8755,815.5311,813.1135
811.50183,805.05493,821.978,795.38464
790.14655,791.75824,822.7839,797.3993
794.57874,785.31134,815.12823,809.4872
800.2198,777.25275,803.44324,814.7253
796.5934,778.46155,805.8608,807.0696
804.65204,792.96704,814.3223,798.20514
798.20514,803.44324,815.5311,805.4579
807.8755,794.17584,819.9634,820.3663
819.9634,792.5641,820.3663,832.4542
805.8608,801.02563,809.0842,824.3956
794.17584,786.1172,798.60803,794.57874
773.22345,774.0293,792.5641,783.69965
787.326,780.87915,791.3553,814.3223
844.5421,783.2967,806.6667,855.0183
859.45056,781.685,811.0989,851.79486
839.707,779.67035,794.57874,821.978
821.978,794.17584,800.2198,814.3223
834.0659,814.3223,816.7399,839.304
871.9414,819.15753,817.1429,850.58606
887.6557,815.12823,817.9487,846.55676
834.87177,792.5641,809.0842,818.3516
778.86444,776.4469,797.3993,793.36993
785.31134,787.72894,800.6227,815.5311
817.9487,792.1612,802.23444,844.94507
830.84247,785.7143,801.4286,845.7509
807.0696,781.28204,794.57874,817.5458
796.1905,786.9231,793.7729,805.4579
813.91943,796.99634,804.2491,830.84247
823.5897,794.17584,808.2784,850.18317
812.71063,781.28204,796.5934,839.707
813.91943,782.0879,792.96704,820.7692
802.6374,787.326,802.23444,809.0842
790.9524,791.75824,806.6667,818.7546
815.5311,796.5934,806.6667,839.707
842.52747,792.96704,812.3077,858.24176
813.5165,810.293,804.65204,805.8608
843.3333,803.8461,813.5165,838.0952
779.2674,797.3993,793.36993,804.2491
803.44324,792.5641,794.17584,832.4542
840.9158,797.8022,801.4286,855.0183
842.52747,805.4579,808.2784,842.9304
824.7985,802.6374,810.696,820.7692
807.8755,800.6227,803.44324,829.2308
805.8608,792.5641,807.0696,848.1685
817.9487,788.93774,819.5604,850.58606
834.87177,803.8461,819.15753,848.5714
830.4396,805.4579,815.9341,830.4396
801.02563,792.1612,813.5165,823.1868
805.8608,806.6667,818.3516,847.76556
836.4835,826.0073,813.5165,861.4652
821.5751,806.26373,801.8315,846.1539
782.8938,803.44324,800.6227,823.9927
807.8755,811.0989,803.8461,848.97437
786.1172,804.65204,805.4579,808.68134
793.7729,792.5641,805.4579,820.7692
784.10254,776.8498,795.38464,803.0403
760.32965,790.9524,791.75824,792.96704
813.91943,801.02563,804.65204,830.84247
755.89746,792.5641,791.3553,801.02563
784.5055,783.69965,786.1172,826.0073
817.1429,803.44324,785.31134,828.4249
814.7253,815.12823,794.57874,808.2784
791.75824,813.5165,798.60803,805.8608
786.1172,806.26373,796.5934,819.15753
807.0696,803.8461,801.02563,832.8571
818.3516,807.47253,800.2198,824.7985
811.50183,817.9487,804.2491,799.81683
811.0989,826.8132,823.1868,805.8608
805.4579,811.9048,826.0073,821.978
793.7729,792.96704,803.44324,810.293
779.67035,786.9231,785.7143,792.5641
772.4176,791.3553,791.3553,776.8498
764.35895,786.52014,800.6227,767.1795
760.7326,792.96704,795.38464,771.6117
780.87915,806.26373,787.72894,782.8938
793.36993,803.8461,788.1319,783.69965
768.3883,790.54944,795.78754,771.6117
765.56775,787.326,804.2491,754.2857
799.81683,800.6227,805.05493,776.4469
829.2308,802.6374,808.68134,819.9634
822.7839,809.0842,818.3516,823.9927
786.52014,808.2784,809.89014,794.17584
759.12085,797.8022,799.41394,763.1502
757.1062,790.14655,802.6374,769.19415
767.5824,782.0879,792.1612,789.34064
790.54944,784.90845,790.14655,800.6227
822.381,817.9487,813.1135,807.47253
825.2015,820.3663,821.1722,830.84247
822.7839,804.65204,809.4872,808.2784
820.7692,821.5751,819.5604,820.7692
827.2161,801.8315,804.65204,819.15753
815.9341,793.36993,794.57874,797.8022
785.7143,791.3553,794.9817,778.46155
764.7619,792.96704,795.78754,782.0879
787.72894,806.26373,806.26373,822.7839
819.15753,810.696,809.89014,838.9011
813.5165,799.81683,802.6374,820.3663
794.9817,806.6667,797.3993,794.57874
799.41394,808.68134,798.60803,810.293
826.4103,788.1319,805.4579,831.6484
827.2161,781.685,804.65204,817.1429
783.69965,816.7399,792.5641,783.69965
822.381,805.05493,804.65204,797.8022
823.1868,812.3077,805.8608,799.81683
833.2601,798.60803,811.0989,826.0073
841.7216,800.2198,815.12823,849.3773
831.2454,794.9817,800.6227,833.663
819.15753,793.36993,791.75824,810.293
797.3993,790.54944,798.20514,800.2198
796.1905,794.9817,797.3993,817.5458
819.15753,800.6227,794.57874,840.9158
831.2454,790.14655,792.96704,828.022
822.381,788.5348,784.90845,801.8315
794.57874,794.9817,780.87915,783.2967
813.1135,807.8755,790.9524,808.68134
837.6923,802.23444,797.3993,834.87177
818.7546,792.96704,793.7729,819.5604
812.71063,805.8608,798.60803,805.05493
814.3223,811.50183,804.65204,796.1905
803.8461,794.57874,798.20514,807.8755
796.1905,784.10254,786.9231,823.9927
807.47253,787.72894,786.1172,818.7546
807.8755,789.34064,787.326,796.99634
784.5055,790.54944,790.14655,776.04395
777.6557,792.1612,802.6374,791.75824
805.8608,796.5934,813.91943,821.5751
833.663,805.4579,807.47253,830.4396
834.87177,807.0696,798.60803,819.5604
810.696,790.14655,797.8022,795.78754
807.47253,789.7436,801.8315,800.2198
830.4396,807.8755,803.8461,831.6484
847.76556,811.9048,805.8608,842.52747
838.9011,805.8608,805.4579,813.91943
820.3663,794.9817,807.0696,796.1905
812.71063,803.8461,811.9048,807.8755
798.60803,802.23444,801.02563,819.9634
786.9231,791.75824,793.36993,813.5165
811.50183,805.4579,803.8461,801.02563
802.6374,801.8315,803.8461,781.685
764.7619,788.5348,792.5641,767.1795
779.67035,788.1319,798.60803,794.17584
820.7692,792.5641,807.47253,818.3516
835.6777,803.8461,810.293,811.0989
807.47253,804.65204,812.3077,785.31134
781.28204,804.65204,805.8608,773.6264
799.41394,811.9048,808.68134,802.6374
819.5604,805.4579,819.5604,818.7546
817.1429,798.20514,807.8755,803.8461
795.78754,794.17584,798.60803,784.90845
785.7143,794.9817,807.8755,778.46155
816.337,813.91943,814.3223,802.23444
829.2308,807.0696,807.0696,820.3663
821.1722,788.5348,805.05493,811.0989
819.5604,801.8315,813.91943,791.3553
799.81683,798.20514,814.7253,777.25275
789.7436,786.9231,808.68134,798.60803
805.4579,802.23444,802.6374,812.71063
814.7253,806.6667,799.41394,798.20514
780.87915,806.6667,805.05493,779.67035
812.3077,810.293,811.9048,794.9817
761.53845,797.8022,791.3553,770.40295
778.86444,805.05493,794.9817,786.9231
807.8755,810.696,792.96704,780.4762
765.16486,785.31134,798.20514,752.674
757.50916,786.1172,803.8461,759.5238
806.6667,819.15753,796.1905,793.36993
784.10254,803.0403,806.26373,792.5641
809.4872,813.91943,816.7399,806.6667
814.3223,808.68134,819.9634,787.72894
785.7143,802.6374,802.6374,754.68866
760.7326,806.26373,799.81683,756.7033
773.6264,805.4579,804.2491,783.69965
799.81683,804.65204,807.47253,794.57874
795.38464,803.0403,808.2784,776.4469
778.46155,803.44324,802.6374,753.8828
763.5531,792.96704,802.23444,751.06226
769.59705,787.72894,804.65204,764.35895
794.9817,798.60803,804.65204,785.7143
801.8315,794.9817,805.4579,786.9231
791.3553,785.7143,805.4579,756.30035
759.5238,789.7436,808.68134,740.989
782.0879,796.5934,811.9048,772.01465
830.0366,799.41394,809.0842,801.4286
834.4689,809.89014,811.50183,800.6227
809.89014,801.8315,806.26373,770.80585
762.3443,782.0879,798.20514,746.2271
772.8205,789.34064,809.89014,766.77655
819.5604,799.81683,820.7692,794.17584
820.3663,790.54944,813.5165,789.7436
805.4579,784.10254,810.293,767.1795
787.326,786.52014,813.5165,760.32965
780.87915,782.0879,808.2784,773.22345
783.69965,765.16486,797.3993,781.685
789.7436,764.7619,803.8461,783.69965
791.3553,764.35895,806.6667,771.6117
788.1319,776.8498,814.7253,780.07324
803.0403,792.1612,829.2308,811.0989
807.8755,777.6557,825.2015,819.5604
795.38464,770,814.7253,802.6374
789.34064,772.01465,808.2784,780.87915
774.0293,777.6557,811.0989,775.2381
789.34064,788.5348,825.6044,801.4286
819.9634,785.31134,825.2015,822.7839
827.619,770.80585,810.696,812.3077
810.696,763.1502,801.8315,787.326
784.5055,766.3736,804.65204,775.2381
790.14655,781.28204,812.3077,799.011
825.2015,786.1172,816.337,828.022
848.97437,782.8938,822.7839,838.9011
836.8865,799.011,824.3956,820.7692
808.2784,804.2491,813.5165,790.9524
788.5348,785.7143,801.02563,787.326
803.0403,781.28204,803.8461,796.99634
817.9487,781.685,808.68134,805.8608
789.34064,784.5055,810.293,781.28204
776.04395,784.5055,805.05493,794.57874
809.89014,779.2674,811.0989,797.8022
796.5934,784.10254,801.02563,818.7546
821.1722,785.31134,805.4579,817.5458
838.9011,799.81683,819.9634,812.3077
832.0513,805.4579,815.5311,798.60803
790.9524,794.57874,807.0696,788.93774
793.7729,792.5641,807.0696,807.8755
820.7692,792.1612,797.3993,823.5897
815.9341,784.10254,790.9524,816.337
817.1429,793.7729,798.20514,801.4286
833.663,812.71063,807.47253,812.71063
834.0659,806.6667,813.91943,828.8278
817.9487,787.72894,804.2491,828.8278
812.3077,780.87915,799.81683,818.3516
792.1612,777.25275,803.44324,796.1905
770.40295,776.4469,806.26373,784.5055
797.8022,790.54944,811.9048,803.0403
814.3223,792.5641,805.8608,817.5458
810.696,790.54944,798.60803,807.8755
808.2784,791.3553,796.99634,790.9524
794.9817,784.90845,797.8022,786.1172
798.20514,796.5934,805.8608,815.12823
829.2308,807.47253,809.89014,840.10986
826.4103,794.17584,800.6227,826.0073
793.7729,781.28204,785.31134,792.1612
793.36993,786.9231,792.1612,782.8938
817.1429,799.011,817.9487,818.7546
841.31866,807.0696,827.2161,840.9158
844.94507,803.8461,817.5458,826.4103
815.12823,792.96704,805.05493,800.2198
795.38464,788.1319,795.78754,796.99634
815.12823,786.1172,802.23444,828.8278
793.7729,793.7729,799.011,781.685
837.28937,803.8461,810.696,836.4835
836.08057,804.2491,811.50183,817.5458
794.17584,800.2198,800.6227,790.54944
776.4469,798.20514,794.17584,787.326
816.7399,804.2491,810.696,824.3956
845.7509,808.2784,820.7692,836.08057
830.0366,798.60803,808.68134,801.8315
800.6227,794.17584,804.2491,781.28204
791.75824,801.02563,811.0989,793.7729
812.71063,816.337,813.1135,818.3516
831.2454,815.9341,814.7253,830.0366
828.8278,811.9048,818.7546,833.663
803.0403,806.26373,806.26373,807.8755
767.98535,797.3993,798.60803,791.75824
768.7912,796.99634,805.4579,805.05493
794.17584,801.8315,811.50183,806.6667
809.4872,803.0403,812.3077,796.5934
785.31134,803.0403,796.5934,778.86444
771.2088,805.05493,796.99634,785.31134
779.67035,784.10254,807.47253,805.8608
776.8498,768.7912,809.89014,806.26373
798.60803,801.8315,812.71063,808.68134
818.3516,813.5165,809.4872,799.41394
801.02563,799.011,808.2784,791.3553
769.19415,794.57874,805.05493,784.5055
780.87915,799.81683,803.8461,799.011
823.5897,816.7399,818.3516,827.2161
801.02563,805.4579,817.1429,798.20514
759.92676,788.93774,801.4286,770
764.7619,792.96704,795.78754,788.1319
776.8498,792.5641,801.4286,807.47253
784.10254,794.9817,797.8022,796.1905
777.25275,781.28204,794.17584,780.4762
765.56775,777.25275,803.0403,778.0586
771.6117,790.9524,806.6667,784.10254
781.28204,795.38464,812.71063,801.02563
777.25275,788.93774,810.696,792.96704
784.90845,786.52014,801.02563,780.07324
794.57874,792.5641,803.0403,780.87915
778.86444,785.7143,809.4872,797.8022
794.9817,784.5055,813.1135,817.5458
808.2784,783.69965,800.2198,807.0696
784.10254,779.67035,788.5348,779.2674
766.77655,788.93774,788.1319,764.35895
783.2967,793.7729,796.1905,786.9231
813.1135,798.60803,813.1135,822.381
820.3663,792.1612,816.337,826.0073
803.8461,806.6667,804.2491,794.9817
798.20514,810.696,809.89014,797.8022
794.17584,801.4286,809.0842,815.9341
812.3077,789.34064,809.4872,811.0989
808.68134,794.9817,804.2491,824.7985
804.65204,799.41394,808.68134,811.9048
784.90845,806.26373,808.2784,785.7143
784.5055,807.8755,808.68134,790.14655
809.0842,816.337,817.9487,819.5604
844.1392,816.7399,824.3956,844.5421
838.0952,808.2784,806.26373,817.1429
796.5934,796.5934,782.0879,770.80585
761.9414,784.5055,782.8938,770
771.2088,792.96704,793.7729,800.2198
798.60803,799.41394,798.60803,809.89014
805.8608,795.78754,798.60803,798.20514
796.99634,795.38464,795.38464,785.7143
809.0842,806.26373,803.44324,784.10254
825.6044,808.2784,807.8755,815.12823
828.8278,792.5641,801.4286,833.663
834.4689,798.60803,792.96704,816.337
825.6044,813.5165,789.7436,795.38464
803.44324,792.1612,790.9524,813.5165
800.6227,807.47253,790.9524,791.75824
838.0952,801.4286,803.0403,842.52747
856.2271,818.7546,812.71063,839.707
831.2454,800.6227,799.81683,804.2491
788.5348,784.10254,788.5348,805.4579
785.7143,779.67035,784.90845,790.14655
825.2015,791.75824,801.4286,827.2161
834.4689,803.44324,807.0696,833.663
814.3223,809.4872,797.3993,808.68134
803.8461,802.23444,796.5934,790.9524
807.0696,803.44324,808.2784,812.71063
819.15753,806.26373,812.71063,832.0513
835.6777,796.99634,810.293,831.2454
817.5458,789.7436,800.2198,805.4579
782.8938,787.326,792.5641,781.28204
778.46155,794.17584,792.5641,799.41394
807.0696,801.02563,799.81683,833.2601
817.1429,794.57874,801.02563,828.8278
799.011,792.96704,791.3553,805.05493
778.0586,792.5641,785.7143,782.0879
782.49084,799.011,800.2198,791.75824
840.5128,794.9817,801.4286,828.4249
812.3077,793.36993,806.26373,823.1868
845.7509,809.4872,806.6667,811.50183
819.9634,803.8461,809.4872,794.17584
805.8608,798.60803,810.293,807.0696
832.8571,802.6374,808.2784,827.2161
828.8278,801.8315,816.337,834.4689
813.5165,793.36993,795.38464,802.23444
794.9817,796.1905,791.3553,780.07324
780.87915,799.81683,792.5641,783.2967
790.54944,804.65204,800.2198,815.5311
817.1429,807.47253,804.65204,820.7692
811.9048,798.60803,799.81683,803.8461
798.20514,804.2491,800.6227,789.7436
806.26373,825.2015,812.71063,803.44324
813.5165,812.3077,809.4872,830.84247
807.47253,779.67035,797.3993,827.619
803.44324,790.14655,790.9524,801.4286
792.5641,805.4579,792.1612,778.0586
797.3993,808.68134,799.81683,787.72894
804.65204,803.0403,808.68134,820.3663
819.5604,806.6667,815.9341,838.0952
843.73627,805.05493,816.7399,833.663
813.1135,788.1319,811.9048,809.4872
802.23444,796.1905,813.1135,809.89014
814.7253,801.8315,812.71063,826.4103
805.8608,796.99634,802.23444,827.619
804.65204,791.75824,798.20514,827.2161
804.2491,786.52014,798.60803,806.26373
780.4762,787.326,799.41394,782.49084
809.89014,800.6227,809.0842,824.3956
778.46155,793.7729,806.6667,798.60803
814.3223,800.2198,804.65204,816.337
788.93774,783.69965,808.2784,787.326
766.77655,772.4176,816.7399,776.8498
768.3883,788.5348,820.7692,794.9817
800.2198,805.8608,815.9341,824.3956
816.7399,811.9048,813.1135,823.9927
776.8498,822.381,805.8608,763.1502
786.52014,809.4872,811.9048,786.52014
796.5934,815.5311,811.50183,786.1172
796.1905,794.9817,818.3516,814.3223
816.337,802.6374,815.9341,805.8608
803.0403,801.4286,815.9341,816.337
794.57874,801.02563,809.0842,780.87915
768.3883,801.4286,801.4286,779.67035
776.04395,800.6227,798.60803,800.6227
787.326,802.6374,794.17584,803.8461
790.9524,806.26373,796.99634,795.78754
788.93774,803.8461,806.26373,784.10254
789.34064,807.0696,817.9487,780.87915
794.17584,802.23444,825.2015,795.38464
811.50183,794.17584,831.2454,821.5751
819.5604,787.72894,825.6044,809.89014
791.3553,794.57874,816.7399,774.83514
756.7033,795.38464,812.3077,773.6264
760.7326,787.72894,805.8608,786.52014
794.17584,792.5641,809.0842,793.7729
811.9048,789.7436,810.696,787.72894
786.52014,782.0879,806.6667,769.19415
766.3736,792.96704,800.2198,767.5824
799.41394,811.0989,800.2198,797.3993
827.619,815.5311,804.65204,818.3516
811.50183,805.05493,807.47253,803.0403
784.5055,791.3553,807.8755,778.0586
794.17584,807.0696,815.5311,803.44324
766.3736,793.7729,806.6667,773.6264
836.4835,808.2784,822.381,829.6337
849.3773,805.4579,819.9634,833.2601
829.6337,800.6227,807.0696,806.6667
778.86444,789.34064,796.99634,772.4176
779.67035,784.90845,802.23444,796.99634
805.05493,781.685,805.4579,821.5751
814.3223,784.5055,802.6374,813.1135
818.3516,791.3553,804.2491,795.78754
792.5641,787.326,805.05493,781.28204
777.25275,796.99634,805.8608,792.96704
801.02563,809.89014,815.9341,824.3956
819.5604,801.02563,815.9341,823.9927
812.3077,794.9817,812.71063,795.78754
791.75824,803.0403,815.12823,782.49084
782.0879,796.1905,812.71063,794.17584
832.4542,813.1135,819.5604,830.0366
806.6667,799.011,815.12823,823.5897
772.8205,777.25275,794.57874,778.0586
813.5165,796.1905,806.6667,800.6227
792.1612,799.41394,802.23444,801.8315
824.3956,799.011,801.4286,830.0366
838.49817,796.5934,805.8608,819.5604
828.8278,792.1612,801.8315,833.2601
821.1722,802.6374,813.1135,821.1722
838.9011,800.6227,810.293,810.696
813.91943,795.78754,801.4286,829.2308
828.022,799.011,796.5934,832.4542
817.9487,798.20514,797.8022,817.1429
803.8461,804.65204,796.99634,787.72894
803.44324,801.02563,802.6374,784.90845
827.2161,800.6227,805.4579,816.337
847.76556,810.696,799.81683,830.0366
828.4249,796.99634,796.5934,816.7399
792.1612,788.93774,795.78754,800.2198
772.01465,797.3993,801.8315,794.17584
793.36993,800.6227,806.6667,815.12823
821.1722,803.8461,807.0696,839.304
837.6923,800.6227,813.5165,844.1392
830.4396,803.0403,807.47253,825.6044
800.6227,801.02563,787.72894,813.5165
813.91943,807.47253,799.41394,828.022
849.7802,814.7253,813.91943,845.7509
847.76556,794.17584,802.23444,832.0513
811.50183,774.83514,789.34064,790.9524
807.0696,791.3553,793.36993,813.91943
782.8938,770.40295,785.31134,780.07324
838.0952,803.0403,802.6374,833.663
840.9158,807.47253,801.4286,838.49817
821.1722,803.0403,800.2198,810.696
805.4579,803.0403,794.9817,800.6227
819.5604,801.02563,800.6227,814.7253
855.0183,812.71063,810.293,835.2747
863.47986,808.2784,807.47253,843.3333
838.9011,790.9524,805.4579,817.1429
808.2784,800.6227,807.0696,789.34064
807.0696,816.337,812.3077,817.5458
834.4689,816.337,820.3663,852.1978
845.34796,814.3223,816.337,841.31866
815.5311,808.2784,794.57874,808.2784
773.22345,799.41394,785.7143,780.87915
780.07324,802.23444,797.3993,790.9524
818.7546,806.26373,803.8461,822.7839
840.9158,809.0842,805.05493,827.619
820.7692,804.2491,796.99634,802.23444
793.7729,804.65204,797.8022,782.49084
800.2198,812.71063,804.65204,801.4286
825.6044,811.0989,803.0403,825.6044
844.1392,811.0989,803.8461,828.022
804.2491,789.34064,789.34064,796.99634
799.81683,796.5934,807.0696,816.337
825.6044,811.50183,819.5604,834.87177
834.4689,811.50183,817.5458,832.0513
838.9011,805.8608,796.5934,811.50183
823.5897,806.26373,810.696,817.5458
790.54944,799.41394,803.44324,790.14655
776.04395,800.6227,809.0842,787.326
798.60803,796.5934,813.91943,812.3077
826.4103,799.41394,814.3223,824.7985
825.2015,804.2491,806.26373,809.0842
804.2491,797.3993,803.8461,782.49084
794.9817,798.20514,807.0696,792.96704
811.0989,807.47253,807.47253,826.4103
832.8571,811.50183,814.3223,836.8865
831.2454,807.8755,808.2784,820.3663
816.7399,802.23444,795.78754,799.81683
797.8022,796.1905,800.2198,797.3993
798.60803,800.6227,802.23444,807.8755
822.7839,803.44324,803.8461,821.1722
845.7509,810.696,818.7546,831.2454
836.4835,809.4872,827.2161,819.5604
790.14655,797.8022,818.7546,801.8315
791.75824,799.011,804.65204,810.293
819.5604,789.7436,799.81683,817.5458
822.7839,784.5055,803.8461,817.1429
805.4579,792.1612,810.293,799.41394
778.86444,795.78754,809.0842,776.4469
792.96704,800.2198,811.0989,800.6227
828.4249,805.05493,814.3223,833.2601
843.3333,813.1135,818.7546,832.8571
821.1722,809.0842,814.3223,809.4872
788.5348,802.23444,804.2491,796.5934
804.2491,804.2491,816.337,814.3223
839.707,797.8022,827.619,834.4689
857.4359,804.2491,822.381,833.2601
838.49817,806.6667,806.6667,805.05493
789.34064,795.78754,796.5934,778.46155
768.3883,784.10254,791.75824,788.5348
792.5641,780.87915,784.10254,811.9048
830.0366,795.38464,792.96704,821.978
849.7802,815.9341,811.50183,823.9927
826.8132,824.3956,815.9341,807.47253
805.05493,814.3223,805.05493,802.23444
805.4579,794.57874,794.9817,815.12823
815.9341,788.5348,802.23444,826.8132
806.6667,792.1612,803.0403,811.9048
803.44324,799.41394,802.6374,785.7143
813.91943,803.0403,810.696,794.57874
824.3956,810.293,818.3516,819.9634
848.5714,819.15753,821.5751,842.52747
846.9597,809.0842,816.7399,838.9011
803.8461,801.8315,805.4579,794.9817
783.2967,799.41394,797.8022,789.7436
799.81683,796.99634,799.41394,815.9341
810.293,798.60803,807.0696,817.9487
796.5934,790.9524,803.44324,781.685
782.8938,796.1905,806.26373,787.326
807.8755,810.293,814.7253,823.1868
811.50183,799.011,808.2784,808.68134
840.5128,817.1429,818.7546,838.9011
834.4689,811.50183,817.9487,835.2747
792.96704,796.5934,811.50183,797.8022
754.68866,789.34064,801.02563,771.2088
768.3883,796.99634,803.44324,792.1612
799.41394,799.81683,813.91943,814.7253
825.2015,808.2784,813.1135,822.381
809.4872,809.0842,815.12823,798.20514
762.3443,801.02563,819.9634,770.40295
754.68866,798.60803,808.68134,784.90845
788.5348,801.4286,800.2198,809.89014
807.0696,811.50183,802.23444,797.8022
796.99634,810.293,806.26373,768.7912
784.90845,806.26373,813.5165,766.77655
786.9231,806.26373,815.9341,790.14655
797.8022,802.6374,813.5165,810.696
807.47253,804.65204,812.3077,811.0989
803.44324,815.12823,809.0842,788.93774
784.10254,807.47253,812.3077,765.16486
766.77655,797.3993,820.3663,783.2967
771.6117,803.44324,814.3223,803.8461
790.14655,802.6374,815.5311,801.4286
780.4762,799.41394,817.1429,790.14655
770.80585,807.0696,811.9048,776.04395
774.83514,811.0989,819.9634,783.69965
788.5348,794.9817,828.4249,805.4579
801.8315,780.87915,822.7839,805.8608
805.4579,799.41394,824.3956,796.5934
805.8608,818.7546,837.28937,793.36993
787.326,817.1429,831.6484,791.3553
772.01465,805.4579,815.9341,795.38464
791.3553,786.52014,812.71063,805.4579
814.7253,776.04395,813.91943,803.44324
802.23444,794.9817,810.696,780.07324
770.80585,801.8315,813.91943,782.8938
786.9231,799.41394,813.1135,807.47253
824.7985,803.8461,805.8608,824.3956
814.7253,796.5934,804.2491,817.5458
783.2967,786.9231,806.6667,790.14655
776.4469,788.1319,808.2784,791.75824
796.99634,798.20514,812.3077,819.9634
818.3516,803.8461,810.696,829.6337
815.9341,803.44324,804.2491,817.5458
787.326,797.8022,808.2784,798.20514
778.0586,803.44324,809.4872,792.1612
807.0696,810.696,805.05493,813.91943
836.08057,806.26373,801.4286,830.84247
843.3333,806.6667,802.23444,821.1722
824.7985,805.4579,806.6667,803.44324
790.9524,806.6667,807.47253,796.1905
806.6667,817.9487,812.71063,821.978
823.9927,805.05493,796.5934,833.2601
806.26373,790.54944,782.49084,811.50183
786.52014,785.7143,788.93774,784.5055
792.5641,802.23444,801.8315,783.2967
819.5604,815.9341,807.8755,818.3516
834.87177,798.60803,800.6227,837.6923
827.2161,787.326,797.3993,829.2308
806.6667,790.9524,796.1905,805.05493
807.8755,797.3993,797.8022,792.1612
818.7546,796.1905,799.81683,817.1429
817.9487,790.9524,801.02563,842.1245
842.9304,797.3993,803.0403,838.49817
833.663,794.9817,797.3993,813.5165
796.99634,794.9817,797.8022,797.3993
795.38464,795.38464,790.9524,805.05493
824.3956,795.78754,792.96704,836.8865
851.39197,803.8461,811.0989,851.39197
840.9158,799.011,811.50183,823.1868
808.68134,801.02563,805.05493,794.9817
805.4579,813.91943,806.6667,810.696
832.4542,805.4579,788.93774,830.4396
841.7216,805.05493,793.36993,826.0073
823.9927,816.7399,798.60803,825.6044
833.2601,796.99634,802.23444,805.05493
804.2491,801.02563,796.1905,820.7692
826.0073,807.0696,799.41394,839.707
804.65204,789.7436,800.2198,801.4286
830.4396,803.8461,799.41394,834.0659
821.1722,806.26373,804.65204,814.3223
831.6484,823.1868,813.91943,828.8278
851.39197,836.08057,818.3516,853.8095
848.97437,822.7839,816.7399,853.8095
840.5128,817.9487,806.6667,835.6777
817.9487,807.0696,803.44324,817.5458
799.011,803.44324,809.0842,813.5165
805.05493,803.8461,807.8755,824.3956
828.022,801.4286,808.68134,838.0952
827.619,803.8461,807.47253,827.2161
811.50183,804.65204,804.2491,798.60803
803.44324,807.0696,810.293,794.57874
823.9927,814.7253,812.71063,815.12823
832.8571,803.44324,806.6667,828.4249
813.5165,790.54944,803.0403,824.7985
799.41394,801.8315,801.4286,790.14655
796.5934,818.7546,803.8461,772.01465
809.89014,812.3077,809.0842,805.05493
826.4103,809.4872,811.50183,834.4689
830.84247,815.12823,807.8755,826.4103
820.7692,808.68134,801.02563,799.011
804.65204,812.71063,804.2491,784.5055
807.47253,819.15753,814.7253,797.8022
822.7839,817.1429,816.337,821.1722
832.0513,819.9634,813.5165,827.619
823.5897,819.5604,813.1135,796.99634
792.1612,808.2784,804.65204,767.5824
780.07324,804.65204,805.4579,780.87915
805.05493,810.293,815.5311,806.26373
826.0073,812.3077,817.5458,801.8315
776.4469,801.4286,806.26373,764.35895
724.0659,793.7729,797.3993,740.58606
735.34796,806.6667,799.81683,759.5238
761.9414,812.3077,812.3077,778.86444
778.86444,791.75824,810.293,782.49084
790.14655,788.93774,807.8755,777.6557
767.98535,801.02563,803.44324,754.2857
751.06226,802.23444,803.8461,757.1062
767.98535,796.99634,809.0842,781.685
796.1905,804.2491,809.0842,796.5934
811.50183,821.5751,810.293,796.1905
776.4469,824.3956,806.26373,763.5531
757.1062,819.15753,804.2491,760.7326
778.0586,821.978,804.65204,789.7436
801.4286,824.3956,803.0403,802.23444
814.7253,824.7985,806.26373,801.02563
802.6374,830.0366,809.89014,786.9231
784.90845,831.2454,810.293,778.86444
784.90845,800.2198,796.1905,805.05493
792.96704,799.81683,802.23444,790.9524
769.59705,800.6227,790.9524,766.77655
773.22345,824.3956,793.7729,771.6117
790.9524,819.5604,803.8461,790.9524
792.96704,803.8461,799.41394,797.3993
793.7729,809.0842,794.57874,778.0586
772.01465,799.81683,800.2198,763.95605
786.1172,807.47253,806.26373,790.9524
800.2198,812.71063,791.75824,794.9817
773.22345,809.4872,794.57874,789.34064
815.5311,811.50183,809.4872,826.4103
774.83514,812.3077,797.8022,780.07324
768.7912,814.7253,801.8315,777.25275
834.4689,821.5751,800.6227,821.1722
849.3773,828.022,790.54944,821.978
817.9487,813.1135,786.9231,807.0696
795.78754,811.50183,805.4579,802.23444
805.8608,821.5751,803.44324,803.0403
810.293,815.5311,804.65204,813.1135
816.337,815.5311,809.4872,813.91943
825.6044,806.6667,801.02563,815.5311
842.1245,803.0403,797.8022,823.5897
822.7839,782.49084,785.31134,807.47253
769.59705,774.83514,770,765.16486
778.46155,789.34064,777.6557,787.326
832.4542,803.44324,791.75824,836.4835
832.0513,813.5165,787.72894,827.619
819.5604,822.381,780.87915,805.05493
817.5458,823.1868,789.7436,796.5934
805.4579,815.12823,788.1319,793.36993
818.3516,813.91943,782.0879,813.1135
844.1392,821.1722,784.90845,827.619
816.7399,807.0696,770.80585,792.96704
780.07324,805.05493,767.1795,766.3736
790.54944,820.7692,781.685,791.75824
808.68134,819.5604,775.64105,819.15753
811.9048,814.3223,768.7912,817.5458
817.5458,819.9634,766.77655,803.0403
809.89014,824.7985,769.19415,787.326
812.3077,834.87177,777.25275,794.17584
836.4835,840.5128,787.72894,828.8278
867.50916,846.1539,800.2198,853.4066
851.39197,822.381,789.7436,833.2601
796.99634,809.0842,769.59705,792.96704
815.12823,801.4286,772.01465,799.81683
825.6044,812.71063,782.8938,816.337
855.42126,810.293,785.31134,835.2747
848.5714,816.337,777.6557,830.0366
859.45056,832.0513,791.3553,816.7399
862.27106,842.1245,805.4579,818.7546
852.1978,831.6484,803.44324,833.2601
857.03296,830.0366,796.1905,839.707
844.1392,818.7546,785.31134,825.6044
817.9487,798.60803,784.90845,803.8461
788.5348,799.81683,788.5348,790.54944
783.69965,803.8461,785.31134,802.6374
828.4249,808.2784,788.5348,825.6044
846.55676,805.05493,793.7729,826.8132
823.5897,796.99634,790.54944,801.02563
807.47253,815.5311,794.57874,795.38464
824.3956,825.2015,806.26373,827.2161
844.1392,810.696,808.68134,844.5421
830.4396,805.8608,791.3553,824.3956
816.337,806.26373,777.25275,799.011
806.26373,806.26373,784.90845,792.5641
798.60803,807.8755,796.1905,806.6667
814.3223,810.293,792.96704,828.4249
830.84247,807.47253,784.10254,828.4249
829.2308,806.6667,790.54944,814.7253
826.8132,819.9634,802.6374,813.1135
812.3077,811.0989,803.8461,821.5751
826.4103,819.15753,809.4872,834.87177
826.8132,817.5458,809.89014,822.381
803.0403,800.2198,801.02563,828.4249
817.9487,811.9048,805.4579,802.6374
804.65204,802.23444,802.6374,794.9817
823.1868,805.05493,805.05493,818.3516
816.7399,799.011,801.4286,819.15753
818.7546,805.8608,800.6227,813.91943
800.6227,810.696,799.41394,790.9524
772.8205,806.26373,796.1905,787.326
789.7436,793.36993,801.4286,813.5165
811.50183,794.17584,810.293,828.8278
820.3663,809.89014,807.0696,815.12823
795.78754,803.8461,788.1319,782.0879
768.7912,788.93774,790.9524,779.67035
796.5934,782.49084,807.8755,815.9341
847.76556,812.71063,817.9487,841.7216
860.65936,829.2308,811.0989,840.10986
826.4103,817.9487,806.26373,814.7253
790.54944,806.6667,802.6374,795.38464
782.0879,799.81683,791.3553,795.38464
814.7253,799.011,790.54944,804.2491
836.8865,807.8755,797.8022,809.0842
832.8571,808.2784,794.9817,788.5348
809.89014,800.2198,792.5641,784.10254
811.0989,804.65204,800.6227,809.0842
823.9927,800.2198,804.65204,824.7985
832.4542,797.8022,811.0989,825.6044
825.2015,797.8022,803.0403,807.47253
790.54944,798.20514,791.3553,797.8022
786.9231,803.44324,801.8315,811.9048
823.1868,808.68134,817.1429,829.2308
835.6777,806.6667,821.5751,832.0513
811.0989,791.75824,811.9048,807.8755
770.80585,782.49084,796.5934,789.34064
767.1795,786.9231,791.75824,798.60803
789.34064,780.4762,792.5641,808.2784
811.0989,790.54944,792.5641,817.5458
807.47253,794.57874,788.93774,809.4872
800.2198,804.65204,801.4286,799.81683
821.5751,825.6044,815.5311,815.12823
837.28937,816.7399,809.89014,830.4396
821.1722,792.1612,797.8022,816.337
801.4286,792.1612,792.1612,798.60803
779.67035,795.38464,794.9817,784.90845
796.1905,795.78754,804.2491,801.02563
844.1392,816.337,813.5165,839.304
848.97437,811.0989,807.47253,834.87177
805.4579,777.6557,794.17584,799.81683
770,776.8498,787.72894,776.04395
771.2088,790.9524,794.57874,774.0293
802.6374,794.57874,803.8461,801.4286
843.73627,809.0842,807.0696,822.7839
807.0696,792.1612,802.6374,790.54944
849.7802,811.50183,804.2491,814.3223
774.83514,788.93774,801.02563,786.9231
800.6227,797.3993,799.41394,819.9634
833.663,813.1135,797.8022,838.49817
823.1868,810.293,793.7729,819.9634
789.7436,803.44324,794.17584,780.07324
772.8205,801.02563,794.9817,780.4762
800.2198,807.8755,797.8022,820.7692
834.4689,812.71063,806.6667,834.0659
820.7692,784.5055,795.38464,812.71063
794.57874,780.4762,777.25275,770.40295
761.9414,771.6117,779.67035,759.12085
765.9707,770.40295,793.7729,793.36993
806.6667,789.34064,798.20514,817.1429
809.4872,786.52014,794.57874,813.91943
794.57874,794.9817,797.3993,796.1905
784.5055,784.90845,799.41394,789.34064
797.8022,768.3883,800.6227,810.293
812.71063,774.83514,803.8461,820.3663
822.381,795.38464,801.02563,811.9048
809.89014,804.2491,795.38464,793.7729
759.12085,790.54944,785.7143,770
775.2381,807.47253,787.326,787.72894
815.9341,813.1135,797.8022,812.3077
805.8608,797.8022,799.011,807.47253
792.1612,794.9817,792.5641,786.52014
782.49084,802.23444,793.36993,775.64105
797.8022,782.8938,801.4286,811.50183
792.1612,807.47253,804.65204,797.3993
801.4286,786.52014,796.1905,811.9048
798.60803,796.5934,796.1905,801.8315
778.0586,794.17584,788.1319,783.69965
779.2674,808.68134,795.38464,797.3993
816.7399,817.9487,809.0842,827.619
839.707,821.978,805.8608,830.4396
828.022,817.1429,804.65204,817.5458
786.9231,806.6667,804.65204,795.38464
767.5824,815.9341,805.8608,795.78754
788.93774,818.7546,801.02563,812.71063
811.9048,807.8755,805.8608,816.337
821.5751,802.23444,815.9341,814.3223
804.2491,804.65204,812.3077,792.5641
766.77655,803.8461,804.65204,775.2381
764.35895,808.2784,799.011,792.5641
799.41394,819.5604,803.44324,801.4286
800.6227,806.26373,805.4579,782.0879
775.64105,797.3993,799.81683,761.9414
772.8205,813.91943,807.47253,766.77655
772.8205,821.978,817.5458,792.96704
770,809.4872,809.89014,790.14655
765.56775,802.23444,794.9817,766.77655
744.21246,796.99634,789.34064,747.03296
742.6007,799.41394,796.1905,751.06226
774.0293,805.8608,809.4872,779.67035
800.2198,805.4579,812.71063,788.5348
799.011,820.7692,811.0989,774.43225
777.6557,817.5458,811.0989,763.5531
786.9231,786.1172,812.71063,788.1319
786.1172,825.2015,813.1135,777.25275
790.14655,799.011,805.4579,791.3553
785.7143,785.7143,807.0696,792.1612
788.1319,797.3993,807.8755,766.77655
752.674,785.31134,801.4286,741.39197
753.0769,780.4762,804.2491,767.98535
817.1429,815.9341,823.1868,816.337
820.3663,819.5604,819.5604,803.0403
772.8205,795.78754,791.3553,759.5238
736.55676,792.1612,777.6557,734.94507
750.2564,800.2198,782.8938,750.2564
779.67035,794.57874,795.38464,782.0879
791.75824,794.9817,805.4579,788.5348
787.72894,799.81683,808.68134,770.80585
761.9414,795.38464,808.68134,755.89746
762.74725,795.78754,806.26373,772.4176
805.8608,805.8608,810.696,807.47253
834.4689,804.2491,815.5311,821.1722
815.12823,796.1905,811.50183,799.81683
792.1612,798.20514,807.8755,783.69965
805.4579,798.20514,808.2784,806.26373
814.7253,795.38464,802.6374,826.0073
812.71063,796.1905,794.9817,815.5311
820.3663,802.6374,799.011,805.8608
808.68134,811.50183,798.60803,786.1172
778.86444,801.02563,794.17584,776.04395
785.7143,788.93774,790.14655,802.23444
826.4103,791.75824,796.5934,817.5458
826.0073,783.69965,801.02563,807.8755
801.02563,779.2674,800.2198,787.72894
784.90845,782.0879,802.23444,782.49084
790.54944,796.99634,799.41394,807.47253
805.4579,799.011,798.20514,820.7692
799.81683,786.52014,799.41394,804.2491
791.3553,794.17584,803.44324,784.5055
779.67035,793.36993,802.6374,787.326
797.3993,803.0403,803.44324,821.5751
824.7985,804.2491,809.89014,836.8865
819.9634,781.28204,804.65204,820.3663
806.26373,790.54944,799.81683,804.2491
805.05493,802.23444,811.50183,811.50183
829.6337,802.6374,796.5934,823.1868
829.2308,794.9817,785.31134,836.08057
806.6667,791.75824,794.17584,828.8278
806.6667,807.0696,797.3993,806.26373
804.2491,815.5311,803.44324,801.02563
800.2198,803.0403,800.2198,817.1429
812.3077,789.7436,799.41394,826.0073
837.28937,799.41394,802.6374,818.7546
828.4249,782.49084,796.5934,798.60803
788.1319,776.4469,798.60803,790.14655
802.23444,800.6227,816.7399,822.381
831.2454,803.44324,817.9487,844.94507
822.7839,798.20514,803.0403,826.8132
808.2784,805.05493,797.3993,797.3993
793.7729,806.6667,803.0403,788.1319
796.5934,794.9817,803.44324,807.0696
795.38464,776.8498,790.14655,816.337
798.20514,774.43225,788.1319,813.91943
799.011,787.326,799.41394,801.8315
792.96704,798.20514,801.4286,789.34064
786.1172,787.72894,796.5934,799.81683
786.52014,777.25275,800.6227,824.7985
809.89014,793.36993,797.3993,834.0659
826.4103,807.0696,797.8022,822.7839
813.91943,813.91943,810.696,811.0989
788.5348,801.8315,806.26373,807.8755
800.2198,790.9524,801.4286,819.15753
834.4689,798.20514,804.2491,828.4249
832.4542,797.8022,793.7729,814.7253
797.3993,797.3993,792.96704,791.3553
778.86444,796.1905,797.8022,786.1172
788.93774,799.011,797.3993,798.20514
797.3993,790.9524,792.1612,805.8608
791.75824,787.72894,795.78754,801.8315
763.1502,782.0879,799.81683,778.0586
751.4652,779.2674,801.8315,774.83514
787.72894,796.99634,798.60803,801.02563
775.64105,792.5641,805.4579,794.17584
770.80585,792.1612,790.54944,783.2967
747.4359,784.90845,786.1172,748.24176
744.21246,792.96704,786.52014,742.1978
789.7436,817.5458,801.4286,788.5348
827.619,811.9048,806.6667,819.9634
813.1135,783.69965,804.2491,796.1905
766.3736,783.2967,794.57874,753.47986
734.5421,792.96704,792.1612,749.45056
747.8388,793.7729,797.8022,769.59705
768.3883,778.46155,791.75824,771.2088
776.04395,778.86444,791.3553,771.2088
764.7619,793.7729,792.5641,753.0769
772.4176,811.50183,796.1905,771.2088
747.4359,797.8022,790.9524,739.7802
792.5641,816.337,801.02563,791.3553
786.9231,801.02563,804.2491,782.8938
776.8498,806.26373,806.26373,766.3736
765.16486,794.57874,797.3993,745.42126
755.89746,787.72894,778.0586,776.04395
778.0586,797.8022,776.04395,772.8205
778.86444,785.31134,781.685,760.32965
760.32965,796.1905,788.93774,759.92676
768.3883,806.26373,800.6227,779.67035
753.0769,769.59705,784.5055,753.0769
791.75824,805.05493,804.2491,799.41394
801.4286,803.44324,796.5934,803.0403
795.38464,800.2198,786.9231,790.9524
788.93774,800.6227,788.5348,784.90845
803.44324,800.2198,800.6227,814.3223
813.91943,790.9524,795.38464,828.8278
824.3956,778.0586,789.34064,826.4103
826.4103,787.72894,793.7729,820.3663
812.3077,803.0403,793.36993,798.20514
807.8755,809.0842,797.3993,804.2491
833.663,810.696,799.011,838.9011
842.52747,797.8022,786.52014,841.31866
817.9487,784.10254,777.6557,814.7253
783.69965,781.685,783.2967,789.7436
774.83514,785.31134,795.78754,799.81683
811.9048,796.5934,807.0696,836.8865
832.8571,796.1905,802.23444,845.7509
846.1539,784.5055,809.0842,836.4835
841.31866,774.83514,814.3223,823.5897
819.5604,772.4176,806.26373,822.7839
831.2454,802.6374,808.2784,844.94507
846.1539,814.7253,805.05493,853.00366
825.6044,799.011,798.60803,826.0073
794.9817,790.14655,793.7729,796.99634
777.25275,787.72894,788.5348,794.57874
804.65204,796.1905,792.96704,821.5751
841.7216,793.36993,801.4286,847.76556
843.73627,790.9524,795.78754,846.9597
821.1722,790.14655,792.1612,817.5458
800.2198,787.72894,788.93774,795.38464
810.293,782.49084,787.326,816.337
827.619,779.67035,798.20514,844.5421
827.619,784.10254,798.60803,828.8278
825.2015,794.57874,803.8461,804.65204
819.5604,792.1612,813.91943,807.8755
811.0989,781.28204,809.4872,821.5751
834.87177,800.2198,807.47253,836.4835
849.7802,805.05493,809.4872,832.0513
819.5604,786.52014,794.17584,804.65204
778.46155,778.86444,790.14655,786.9231
774.0293,787.326,799.81683,799.81683
809.4872,796.99634,799.81683,821.1722
817.9487,788.5348,794.57874,823.9927
802.23444,783.2967,794.57874,807.47253
776.4469,792.5641,795.78754,792.5641
818.3516,785.31134,805.4579,836.08057
837.28937,791.75824,801.8315,835.6777
782.49084,792.5641,797.8022,810.696
836.08057,798.20514,796.5934,822.7839
810.696,784.5055,796.5934,803.8461
798.60803,776.04395,800.6227,796.5934
815.12823,791.3553,801.8315,820.3663
822.7839,801.02563,798.60803,825.2015
816.337,801.4286,794.9817,802.23444
794.17584,794.17584,789.34064,778.86444
763.5531,790.9524,787.326,774.0293
776.8498,795.78754,792.96704,801.02563
790.14655,787.326,793.7729,811.50183
776.8498,782.0879,789.7436,788.93774
774.43225,795.78754,798.60803,771.2088
768.7912,805.8608,806.6667,771.2088
774.43225,805.4579,801.02563,784.10254
800.2198,799.81683,799.81683,794.9817
804.65204,782.8938,797.3993,780.07324
771.2088,790.9524,790.9524,751.4652
752.674,813.91943,783.69965,747.4359
753.47986,813.1135,785.31134,769.59705
753.0769,806.26373,792.1612,777.25275
757.9121,799.81683,787.72894,767.5824
747.8388,797.8022,778.0586,737.3626
733.73627,793.7729,779.67035,723.663
755.89746,792.5641,796.5934,769.19415
793.7729,796.5934,811.0989,805.4579
803.8461,801.8315,807.8755,797.8022
788.93774,805.8608,798.20514,770.80585
760.32965,803.8461,808.68134,754.68866
756.7033,804.65204,814.3223,768.3883
782.0879,798.60803,802.6374,782.8938
791.75824,796.1905,800.6227,776.4469
771.2088,801.4286,799.011,759.5238
736.1539,786.1172,784.10254,750.2564
773.22345,790.14655,791.3553,780.87915
738.5714,789.7436,789.34064,744.61536
817.5458,801.4286,813.91943,804.2491
806.6667,805.05493,818.3516,790.54944
748.24176,802.23444,808.2784,757.1062
731.7216,809.0842,805.05493,757.50916
772.01465,815.12823,807.47253,793.36993
797.8022,807.47253,804.65204,805.8608
788.1319,800.6227,796.99634,784.90845
775.64105,799.011,801.8315,779.2674
770.40295,796.5934,799.41394,788.93774
780.4762,792.5641,784.10254,801.8315
795.78754,792.1612,782.0879,813.91943
791.3553,793.36993,789.34064,797.8022
790.14655,793.7729,794.57874,781.28204
813.1135,804.2491,809.4872,795.78754
824.7985,808.68134,814.3223,819.5604
826.8132,801.02563,800.2198,819.5604
819.15753,789.7436,792.96704,802.6374
807.47253,787.72894,801.4286,793.7729
805.05493,793.36993,808.2784,803.8461
817.1429,787.326,805.8608,830.0366
820.7692,771.2088,799.41394,842.1245
815.9341,774.83514,793.36993,819.5604
801.02563,774.43225,786.9231,790.14655
795.78754,779.67035,796.1905,795.78754
811.50183,798.60803,798.60803,816.7399
832.8571,802.6374,796.99634,820.3663
833.663,793.7729,796.99634,814.3223
809.0842,791.75824,790.9524,794.17584
784.5055,793.36993,796.1905,784.10254
790.9524,798.20514,799.81683,814.3223
833.2601,813.5165,805.8608,840.9158
831.2454,797.3993,802.23444,828.022
792.96704,780.87915,790.54944,799.011
768.3883,778.86444,786.1172,787.326
776.04395,771.6117,790.9524,807.0696
818.7546,783.2967,798.60803,830.84247
837.6923,791.3553,799.011,819.15753
813.1135,779.67035,788.1319,791.3553
786.52014,780.07324,789.34064,782.8938
789.7436,783.2967,798.20514,801.4286
807.8755,780.07324,793.7729,815.9341
818.3516,782.49084,792.1612,813.91943
844.1392,797.3993,803.0403,808.68134
841.7216,805.4579,816.337,803.8461
815.12823,805.05493,817.1429,819.9634
808.2784,786.9231,802.6374,827.2161
809.4872,771.2088,790.54944,809.4872
800.2198,778.46155,780.87915,794.57874
782.0879,781.685,788.93774,784.5055
784.90845,781.28204,799.81683,792.5641
815.12823,786.52014,799.41394,816.7399
841.31866,796.1905,800.6227,825.6044
842.9304,802.23444,799.41394,811.50183
801.8315,793.36993,795.38464,782.49084
793.7729,791.3553,801.02563,793.36993
832.0513,790.14655,811.50183,832.4542
839.304,798.20514,807.47253,833.663
826.8132,802.6374,802.23444,813.1135
809.0842,788.93774,803.0403,794.17584
787.72894,778.86444,801.8315,790.54944
774.0293,767.5824,792.96704,799.81683
803.0403,777.25275,794.9817,812.3077
826.8132,793.7729,796.99634,816.7399
803.8461,794.57874,786.1172,797.3993
798.20514,800.6227,796.5934,787.326
815.12823,804.2491,811.0989,806.26373
859.85345,822.381,815.12823,821.978
833.663,813.91943,807.0696,818.7546
836.8865,814.3223,819.15753,800.2198
780.87915,799.41394,800.6227,771.2088
771.2088,786.52014,789.34064,777.6557
780.4762,783.2967,792.1612,796.1905
790.14655,781.685,790.14655,799.011
772.01465,795.38464,800.6227,773.6264
759.12085,797.8022,800.6227,764.35895
796.1905,801.8315,799.41394,803.44324
759.5238,795.78754,793.7729,786.1172
828.8278,820.7692,817.1429,810.696
807.47253,818.7546,810.696,779.67035
751.8681,795.38464,790.9524,741.39197
745.42126,797.3993,787.72894,758.71796
783.2967,808.2784,795.78754,789.7436
796.99634,806.6667,799.011,801.02563
785.31134,793.36993,792.5641,773.22345
774.43225,793.7729,794.57874,753.8828
789.7436,806.26373,810.696,781.685
773.22345,781.28204,788.93774,772.4176
789.7436,799.41394,805.8608,790.14655
767.98535,770,785.7143,743.8095
755.09155,770,797.3993,736.9597
761.9414,796.5934,801.02563,764.7619
780.07324,801.02563,797.8022,776.8498
778.46155,792.5641,795.38464,775.2381
761.53845,792.1612,792.1612,762.3443
752.674,794.57874,792.1612,755.09155
755.09155,799.011,805.05493,771.2088
770.80585,799.41394,815.5311,794.57874
799.41394,806.6667,815.9341,801.4286
807.8755,803.0403,818.3516,787.72894
758.315,788.5348,805.05493,759.12085
727.6923,788.1319,795.78754,749.45056
758.71796,786.1172,798.20514,774.43225
793.36993,790.14655,796.99634,801.4286
822.7839,802.23444,805.05493,812.3077
807.8755,794.17584,803.0403,784.90845
751.8681,768.3883,791.3553,766.3736
757.50916,770.80585,791.75824,786.52014
812.71063,798.20514,799.81683,809.0842
846.1539,809.89014,809.4872,813.91943
821.1722,802.6374,807.47253,780.87915
793.36993,792.96704,794.57874,767.1795
810.293,795.78754,802.23444,801.02563
826.0073,799.81683,816.7399,824.7985
815.12823,792.96704,808.2784,801.8315
799.81683,794.9817,796.1905,772.01465
784.5055,782.49084,796.5934,774.0293
783.2967,767.98535,795.78754,792.96704
790.14655,767.5824,786.52014,799.011
794.17584,773.6264,792.96704,799.81683
798.20514,779.2674,799.011,793.7729
790.54944,786.9231,805.05493,792.96704
804.2491,807.47253,818.3516,823.5897
827.619,803.0403,802.23444,811.0989
807.0696,781.685,793.36993,790.9524
790.54944,776.4469,796.1905,783.2967
807.8755,789.34064,798.60803,800.2198
829.2308,812.3077,819.9634,831.6484
836.8865,785.7143,794.57874,815.9341
837.28937,776.04395,799.011,825.2015
811.9048,805.4579,807.47253,791.75824
828.8278,788.5348,804.65204,813.5165
805.8608,809.4872,806.26373,798.20514
839.304,801.4286,807.8755,831.2454
846.55676,795.78754,808.2784,830.4396
817.5458,771.2088,795.38464,796.5934
793.7729,763.5531,795.78754,781.685
787.72894,792.96704,801.02563,795.38464
797.8022,800.2198,798.20514,814.7253
814.3223,793.36993,792.96704,820.7692
809.0842,785.31134,788.93774,795.38464
780.87915,782.49084,784.5055,781.685
788.1319,802.23444,803.44324,811.0989
806.6667,798.60803,804.65204,822.7839
810.293,782.49084,788.1319,812.3077
805.05493,783.69965,788.1319,794.9817
792.96704,784.5055,793.7729,770.80585
777.25275,782.0879,791.75824,779.2674
785.7143,790.54944,798.20514,810.293
817.5458,803.8461,808.2784,830.4396
819.5604,801.02563,805.05493,815.5311
806.26373,801.4286,801.4286,793.36993
792.96704,800.2198,800.2198,792.1612
782.49084,787.72894,801.8315,797.8022
802.6374,793.7729,800.2198,805.8608
818.3516,797.3993,798.20514,808.68134
792.96704,785.31134,804.65204,780.4762
767.5824,790.14655,801.8315,763.1502
775.64105,795.78754,791.3553,782.8938
792.5641,786.52014,784.10254,791.3553
787.72894,787.72894,781.685,779.2674
782.49084,796.99634,794.17584,762.3443
759.5238,788.93774,801.8315,751.06226
758.71796,798.20514,801.02563,765.56775
789.34064,803.44324,796.99634,785.31134
773.6264,786.9231,787.326,770.80585
753.47986,793.36993,790.9524,751.4652
756.30035,801.02563,799.011,751.8681
760.7326,787.326,797.8022,768.3883
775.64105,791.75824,798.60803,782.0879
786.9231,787.326,799.011,777.6557
757.50916,777.6557,793.36993,747.8388
737.3626,788.5348,790.54944,733.73627
757.1062,803.0403,789.7436,755.09155
773.22345,807.8755,790.54944,776.04395
788.5348,805.8608,799.011,790.9524
807.0696,794.17584,814.3223,786.1172
806.26373,790.14655,827.2161,774.83514
794.57874,796.5934,815.12823,785.31134
789.34064,789.7436,787.72894,786.9231
802.6374,784.90845,787.72894,790.54944
818.7546,787.72894,796.99634,784.90845
786.52014,784.90845,795.78754,761.9414
767.5824,790.14655,805.4579,781.685
788.5348,797.8022,803.44324,803.44324
795.38464,794.9817,798.60803,788.1319
792.1612,798.20514,799.81683,779.67035
801.4286,814.3223,807.8755,780.87915
812.71063,812.3077,816.337,800.2198
826.0073,799.41394,817.9487,825.2015
836.08057,795.78754,813.91943,830.4396
813.91943,786.9231,799.41394,806.6667
790.14655,789.7436,794.17584,773.6264
776.4469,799.81683,799.011,774.83514
799.011,804.2491,801.8315,811.0989
823.9927,800.2198,803.8461,821.5751
838.49817,805.4579,804.65204,840.5128
786.52014,786.9231,795.38464,782.49084
782.0879,788.93774,800.2198,792.1612
826.8132,809.0842,813.5165,839.707
857.03296,796.99634,813.1135,846.55676
836.08057,777.6557,809.89014,824.7985
800.2198,787.326,804.65204,800.6227
799.41394,790.9524,807.8755,796.5934
826.0073,782.49084,813.91943,826.8132
851.79486,799.41394,809.89014,848.1685
857.4359,806.26373,811.0989,847.76556
847.3626,809.0842,819.9634,830.84247
816.337,805.4579,812.71063,805.4579
808.68134,786.1172,801.4286,817.5458
829.6337,777.6557,799.011,840.5128
852.6007,787.326,795.38464,840.5128
832.4542,788.1319,792.96704,817.5458
787.72894,774.43225,795.78754,800.6227
799.41394,777.6557,803.0403,816.7399
830.0366,782.49084,806.6667,836.4835
836.08057,791.75824,801.8315,843.73627
813.91943,789.34064,789.7436,817.9487
793.7729,776.8498,784.90845,794.9817
804.65204,782.49084,791.75824,815.12823
821.978,783.69965,802.6374,840.5128
830.4396,785.7143,802.23444,848.1685
828.8278,782.0879,797.3993,836.08057
823.1868,788.1319,803.0403,823.5897
814.7253,796.5934,806.26373,832.0513
830.0366,787.72894,788.5348,832.8571
807.8755,800.2198,796.99634,816.7399
799.41394,801.8315,798.20514,816.7399
806.6667,780.87915,793.36993,836.4835
840.5128,805.05493,793.36993,828.022
830.84247,800.6227,804.2491,838.0952
808.68134,791.3553,796.99634,815.5311
782.49084,781.28204,778.46155,797.8022
784.10254,792.96704,799.011,811.50183
811.0989,802.23444,807.47253,831.2454
820.3663,794.17584,801.4286,836.8865
807.8755,785.7143,805.4579,822.381
780.87915,780.4762,791.75824,787.326
757.9121,772.4176,784.90845,782.0879
780.07324,782.0879,790.14655,799.81683
831.2454,796.5934,811.0989,838.0952
822.7839,796.1905,795.78754,822.381
831.6484,799.81683,800.2198,829.6337
806.6667,794.17584,797.3993,803.0403
780.07324,777.25275,788.1319,807.47253
773.22345,784.10254,789.7436,784.10254
834.0659,792.96704,804.2491,835.2747
853.00366,803.8461,807.0696,828.022
821.5751,781.28204,789.7436,798.60803
780.4762,767.1795,783.2967,777.6557
783.69965,782.49084,797.8022,811.0989
825.6044,795.78754,809.0842,842.52747
816.337,791.3553,803.8461,821.5751
784.90845,792.5641,800.2198,782.8938
757.50916,790.9524,800.2198,760.32965
753.8828,789.7436,800.2198,780.07324
788.93774,790.54944,797.8022,813.91943
819.15753,797.3993,806.26373,819.9634
801.8315,799.41394,813.91943,797.3993
767.5824,799.011,807.8755,773.22345
767.98535,787.72894,806.26373,790.9524
778.46155,779.67035,805.8608,809.89014
784.90845,788.5348,796.1905,801.4286
784.90845,790.9524,790.14655,780.07324
772.01465,789.34064,791.3553,767.98535
766.77655,799.011,803.8461,785.31134
786.52014,801.02563,810.293,796.5934
799.41394,788.93774,808.68134,791.75824
805.05493,792.1612,817.5458,791.75824
790.9524,796.99634,809.89014,786.1172
770.80585,798.60803,800.6227,784.10254
790.54944,797.3993,807.47253,790.9524
808.68134,790.54944,813.91943,801.02563
799.81683,786.9231,812.3077,784.5055
773.6264,784.10254,799.81683,749.45056
768.3883,801.4286,801.4286,761.13556
787.326,810.293,811.9048,793.7729
812.3077,808.68134,815.5311,801.02563
819.9634,797.3993,814.3223,784.10254
787.326,790.9524,812.71063,758.71796
781.685,802.6374,819.15753,770.80585
798.60803,799.81683,814.7253,802.6374
796.99634,793.36993,801.4286,802.6374
790.9524,786.1172,792.96704,782.49084
778.0586,776.4469,792.5641,764.7619
768.3883,788.5348,806.26373,779.67035
782.8938,795.38464,808.68134,809.89014
803.0403,785.7143,805.8608,819.15753
813.1135,792.1612,813.5165,820.3663
795.38464,792.5641,805.05493,796.99634
784.5055,786.1172,796.5934,778.46155
800.2198,794.17584,808.2784,806.26373
838.49817,806.26373,813.1135,842.9304
837.28937,797.3993,810.293,838.49817
820.3663,784.90845,807.47253,798.60803
824.3956,797.8022,810.696,793.7729
850.58606,804.2491,826.0073,828.8278
867.50916,799.41394,830.84247,853.00366
830.4396,789.34064,808.68134,830.0366
787.326,782.0879,793.7729,788.93774
764.35895,788.1319,794.57874,772.8205
770.80585,788.93774,793.36993,796.5934
803.8461,795.78754,790.54944,820.7692
827.2161,792.1612,802.6374,823.1868
809.4872,778.86444,811.50183,811.0989
787.72894,796.5934,807.47253,799.41394
796.5934,804.65204,799.41394,808.2784
816.7399,798.20514,798.20514,826.4103
828.8278,797.3993,806.26373,829.6337
826.0073,803.44324,814.3223,818.3516
807.47253,817.9487,813.1135,803.8461
794.57874,802.6374,805.4579,810.696
807.47253,784.90845,804.65204,835.6777
818.7546,791.3553,805.4579,837.6923
810.293,793.36993,802.23444,814.7253
777.6557,788.5348,795.78754,795.38464
769.19415,790.14655,784.5055,792.96704
797.3993,788.93774,788.5348,812.71063
818.7546,799.011,794.57874,829.6337
835.6777,821.1722,797.3993,821.978
830.84247,809.0842,806.6667,797.8022
813.5165,800.6227,805.8608,799.41394
818.3516,808.68134,800.6227,815.9341
830.84247,801.02563,799.011,820.7692
814.7253,784.5055,788.5348,796.1905
793.36993,790.54944,794.57874,782.8938
795.78754,806.26373,815.5311,795.78754
813.1135,803.44324,823.5897,820.7692
815.12823,796.1905,802.23444,822.381
790.9524,782.0879,782.49084,794.17584
769.59705,778.86444,786.1172,773.22345
782.49084,796.99634,796.99634,784.90845
815.5311,805.8608,799.81683,811.50183
832.0513,805.05493,794.57874,829.2308
821.5751,797.8022,798.20514,819.5604
813.1135,803.44324,808.68134,799.81683
807.8755,792.5641,809.4872,800.6227
797.8022,784.5055,804.2491,813.5165
817.5458,785.31134,804.2491,826.4103
825.6044,811.50183,809.89014,812.3077
801.02563,799.81683,802.6374,803.0403
830.4396,800.6227,808.68134,831.2454
813.91943,803.0403,792.96704,808.2784
797.3993,800.2198,794.9817,796.1905
779.67035,800.6227,809.4872,782.8938
819.5604,808.68134,790.54944,809.89014
804.2491,805.4579,796.5934,810.696
814.3223,800.6227,808.2784,797.3993
821.978,812.71063,795.78754,813.5165
784.5055,802.23444,811.9048,796.99634
815.5311,811.0989,797.8022,800.6227
788.5348,809.4872,796.1905,786.52014
788.5348,813.1135,805.05493,798.60803
805.05493,798.20514,810.293,803.0403
805.8608,790.54944,802.23444,790.9524
805.05493,810.696,797.3993,786.52014
755.89746,794.9817,798.60803,775.64105
776.04395,795.38464,801.02563,801.4286
819.9634,809.0842,812.71063,825.2015
780.4762,794.9817,803.44324,780.07324
828.022,809.4872,812.71063,815.12823
786.9231,814.7253,803.8461,779.67035
736.9597,787.326,800.6227,765.16486
763.95605,792.1612,808.68134,795.78754
805.8608,803.8461,808.2784,809.4872
792.96704,801.02563,804.65204,794.57874
753.0769,794.17584,813.1135,767.5824
752.674,808.68134,817.5458,756.30035
764.35895,801.4286,807.0696,786.9231
777.6557,788.5348,802.6374,800.6227
781.685,797.3993,803.8461,783.69965
740.989,792.5641,800.6227,754.68866
724.4689,788.93774,801.4286,751.8681
773.22345,804.65204,813.5165,797.8022
815.5311,805.8608,814.3223,819.9634
813.1135,793.7729,806.26373,799.81683
751.8681,787.72894,803.44324,765.9707
777.25275,807.8755,803.44324,787.326
786.9231,788.1319,807.47253,775.2381
821.5751,819.9634,813.5165,812.3077
815.9341,796.5934,815.12823,801.8315
799.011,785.31134,815.5311,782.49084
786.52014,789.34064,813.91943,780.07324
787.326,795.78754,805.8608,801.4286
801.8315,801.8315,799.41394,809.89014
823.9927,798.60803,801.8315,805.4579
819.9634,793.36993,804.2491,791.75824
787.72894,791.75824,805.4579,773.22345
799.41394,794.9817,814.3223,798.60803
811.0989,802.6374,821.978,819.15753
797.3993,808.68134,817.9487,809.0842
805.4579,815.9341,815.12823,801.4286
782.49084,796.5934,809.0842,782.49084
780.07324,793.36993,806.6667,797.3993
798.60803,788.1319,801.02563,815.9341
815.5311,788.1319,801.8315,811.50183
808.2784,790.14655,798.60803,791.75824
777.25275,782.8938,795.78754,772.4176
803.0403,798.20514,814.7253,800.6227
833.663,809.0842,819.15753,824.7985
835.6777,803.44324,808.68134,822.381
819.15753,789.7436,803.0403,794.9817
795.78754,794.9817,807.47253,779.67035
807.8755,814.3223,808.2784,806.6667
825.6044,809.4872,804.2491,823.9927
809.4872,786.52014,795.38464,819.15753
802.23444,791.75824,792.5641,806.26373
801.8315,801.8315,797.8022,795.38464
796.5934,776.8498,803.0403,805.8608
822.381,771.6117,811.0989,839.304
862.27106,811.50183,818.3516,852.1978
794.57874,788.5348,799.011,799.011
779.2674,786.1172,792.1612,819.9634
806.26373,799.81683,797.8022,830.4396
827.2161,791.75824,800.6227,801.8315
833.2601,805.8608,805.05493,824.7985
800.2198,796.5934,796.5934,789.34064
764.35895,791.75824,786.9231,778.46155
821.1722,799.41394,811.9048,847.3626
789.7436,793.36993,801.8315,822.381
835.6777,805.8608,816.7399,838.49817
863.0769,813.1135,811.50183,834.87177
824.7985,808.2784,824.7985,809.89014
800.2198,803.8461,821.1722,797.3993
800.2198,790.14655,812.71063,814.3223
808.68134,784.90845,799.81683,823.9927
819.9634,797.8022,794.57874,824.3956
815.9341,796.1905,793.7729,811.50183
789.7436,779.67035,794.57874,792.1612
784.90845,768.7912,804.65204,815.9341
812.3077,770,807.0696,835.2747
824.7985,777.6557,793.7729,830.4396
819.9634,786.9231,798.60803,812.3077
813.5165,808.2784,813.91943,794.9817
810.293,815.5311,817.9487,815.9341
824.3956,804.2491,813.1135,833.663
833.2601,795.38464,806.6667,828.4249
823.9927,792.96704,807.0696,815.12823
803.8461,797.8022,805.4579,801.8315
799.41394,801.8315,799.41394,803.44324
821.978,791.3553,798.20514,817.5458
818.3516,776.8498,793.7729,817.9487
812.3077,784.90845,796.1905,804.2491
797.8022,791.3553,804.2491,792.96704
779.67035,781.28204,807.8755,794.9817
795.38464,784.5055,805.05493,811.0989
826.8132,796.99634,812.3077,832.8571
792.5641,792.1612,812.71063,792.1612
811.50183,792.1612,807.47253,815.12823
851.39197,792.5641,806.6667,833.663
861.4652,801.8315,810.293,831.2454
815.5311,796.1905,808.68134,799.81683
771.6117,784.10254,803.44324,796.5934
792.1612,793.7729,810.293,834.4689
831.2454,790.14655,813.1135,846.55676
836.8865,805.4579,817.5458,828.8278
808.68134,797.3993,815.5311,796.5934
818.3516,767.1795,807.8755,819.9634
797.8022,789.34064,812.71063,795.38464
804.65204,813.91943,825.6044,804.65204
846.9597,822.7839,814.3223,840.10986
800.6227,788.93774,794.9817,785.31134
832.4542,803.8461,797.8022,813.5165
778.0586,784.5055,797.3993,776.4469
823.5897,792.96704,804.65204,823.1868
790.14655,787.72894,795.78754,793.7729
817.5458,786.52014,804.65204,821.978
829.2308,823.1868,829.6337,828.8278
805.4579,791.75824,799.011,801.8315
804.2491,801.8315,802.6374,797.8022
798.20514,795.38464,803.8461,813.1135
815.5311,796.99634,807.8755,832.0513
827.619,797.8022,801.02563,814.7253
812.3077,799.011,806.6667,805.8608
836.8865,798.20514,804.65204,833.2601
817.5458,798.60803,808.2784,818.7546
826.4103,798.60803,804.65204,826.0073
819.9634,790.9524,794.17584,821.978
819.15753,790.54944,797.8022,801.02563
812.3077,794.57874,809.89014,791.3553
803.8461,797.3993,810.696,800.2198
826.0073,798.20514,813.5165,817.1429
839.304,787.326,811.9048,823.1868
820.3663,790.9524,801.02563,798.20514
777.6557,794.9817,796.99634,772.01465
802.6374,801.02563,807.8755,818.7546
834.87177,798.20514,801.8315,818.7546
768.3883,795.38464,804.65204,790.14655
840.5128,790.54944,797.3993,800.6227
809.0842,791.75824,801.4286,784.90845
