eeg_1,eeg_2,eeg_3,eeg_4
594.3223,728.49817,748.6447,703.5165
662.01465,734.94507,776.8498,736.1539
643.8828,758.315,767.5824,809.4872
625.34796,732.52747,746.2271,798.60803
667.25275,720.0366,737.3626,776.04395
659.59705,744.61536,737.76556,796.5934
701.50183,770.0,709.9634,822.381
709.5604,745.0183,711.5751,795.78754
667.6557,749.0476,745.82416,763.95605
726.08057,790.14655,735.34796,743.4066
601.5751,728.49817,768.3883,694.65204
682.96704,772.01465,743.4066,705.5311
697.47253,769.19415,785.31134,791.3553
643.8828,718.022,736.9597,688.60803
669.67035,724.0659,723.2601,690.2198
695.4579,722.0513,737.3626,743.4066
737.3626,717.619,734.5421,765.9707
759.12085,767.98535,731.31866,751.4652
767.98535,794.57874,741.39197,763.95605
733.73627,756.7033,756.7033,755.89746
673.2967,740.989,748.24176,743.8095
689.81683,750.2564,730.5128,763.95605
723.663,748.6447,724.4689,767.5824
738.1685,755.09155,749.85345,713.5897
753.47986,742.1978,766.3736,700.696
772.8205,723.2601,736.55676,758.71796
749.45056,744.61536,764.7619,811.0989
722.8571,774.0293,773.6264,819.5604
711.978,747.8388,741.79486,760.32965
701.9048,728.9011,753.47986,694.2491
674.5055,731.31866,743.4066,718.022
717.2161,727.28937,735.34796,774.83514
746.2271,740.989,750.2564,763.5531
771.6117,769.19415,746.63007,721.6484
774.43225,759.5238,744.61536,690.2198
747.4359,735.34796,743.00366,722.4542
781.28204,739.3773,733.73627,744.61536
790.54944,743.4066,700.293,729.304
784.10254,784.5055,799.81683,787.72894
691.02563,752.674,810.293,721.2454
712.381,743.4066,787.326,721.2454
766.3736,759.12085,775.64105,760.7326
746.63007,765.16486,757.9121,755.09155
771.6117,760.32965,746.2271,695.8608
782.49084,738.5714,727.28937,684.17584
731.7216,751.4652,739.7802,738.1685
762.74725,781.28204,779.67035,799.81683
788.93774,794.9817,788.93774,807.0696
816.7399,770.80585,719.6337,797.3993
763.5531,790.54944,768.7912,760.7326
792.1612,780.07324,744.21246,795.38464
769.19415,772.4176,754.2857,762.74725
773.22345,769.19415,754.68866,734.94507
765.16486,750.65936,788.5348,705.5311
757.1062,763.1502,763.95605,745.0183
759.12085,761.13556,743.00366,765.9707
796.99634,741.79486,769.59705,704.7253
736.55676,756.30035,762.3443,674.90845
718.8278,766.77655,750.2564,734.5421
762.74725,761.9414,765.56775,792.5641
774.83514,754.2857,751.8681,799.41394
762.3443,720.4396,728.0952,723.663
803.44324,743.4066,761.53845,694.2491
785.7143,774.83514,767.98535,711.5751
774.83514,774.0293,767.98535,708.7546
759.12085,761.53845,783.2967,691.8315
695.05493,744.61536,761.53845,675.31134
768.3883,753.8828,763.1502,708.7546
715.2015,765.16486,758.71796,779.67035
761.53845,766.3736,765.16486,761.53845
749.85345,765.56775,765.56775,763.5531
789.7436,776.8498,753.47986,751.4652
799.41394,773.6264,742.6007,738.97437
787.72894,765.16486,753.8828,758.71796
782.49084,765.56775,784.5055,794.57874
735.34796,765.56775,793.7729,780.4762
700.696,763.5531,785.31134,735.34796
757.9121,768.7912,781.28204,691.4286
776.4469,784.5055,784.5055,712.381
751.06226,784.5055,776.8498,755.4945
836.08057,774.43225,749.0476,755.09155
899.34064,786.1172,749.0476,713.9927
763.1502,778.46155,778.0586,732.1245
738.1685,774.43225,764.35895,801.02563
794.9817,780.4762,765.9707,792.5641
769.19415,774.43225,782.8938,746.63007
764.7619,764.7619,784.10254,693.0403
768.7912,772.4176,796.5934,726.08057
790.9524,786.9231,780.87915,772.4176
820.3663,791.3553,744.21246,767.1795
820.3663,777.25275,759.12085,776.8498
782.49084,759.5238,773.22345,803.8461
723.2601,761.53845,738.97437,771.2088
731.7216,763.1502,773.22345,738.97437
807.47253,787.326,826.4103,790.14655
770.80585,791.3553,809.0842,803.44324
720.0366,755.09155,748.24176,739.3773
789.7436,749.0476,732.52747,729.707
832.4542,771.6117,764.35895,716.0073
822.7839,794.57874,783.2967,699.89014
761.13556,804.2491,779.2674,727.28937
741.79486,782.8938,733.3333,801.4286
811.0989,780.07324,771.6117,836.8865
755.89746,775.2381,815.9341,720.0366
697.8755,764.7619,788.93774,670.4762
731.31866,767.1795,767.98535,720.0366
777.6557,756.7033,752.674,719.6337
747.03296,759.12085,763.95605,719.6337
721.6484,767.1795,781.685,724.87177
717.2161,780.07324,767.5824,740.18317
745.42126,792.96704,766.3736,784.90845
833.2601,793.7729,775.2381,800.6227
754.2857,762.3443,793.36993,748.6447
745.82416,763.5531,792.1612,731.7216
801.8315,781.685,791.75824,785.31134
774.43225,782.0879,814.7253,781.28204
770.80585,765.56775,781.28204,717.2161
771.2088,806.6667,801.4286,747.4359
782.8938,779.67035,765.9707,705.5311
785.31134,809.0842,802.23444,786.9231
815.5311,801.8315,769.59705,810.293
791.3553,789.34064,768.7912,779.67035
757.50916,761.13556,709.15753,796.5934
762.74725,767.5824,732.9304,805.8608
778.86444,786.52014,825.6044,718.8278
777.25275,774.43225,834.4689,640.2564
776.4469,769.19415,812.71063,657.1795
800.2198,790.9524,801.02563,729.707
775.2381,776.04395,784.5055,762.3443
761.53845,765.9707,774.0293,774.43225
779.2674,780.87915,745.82416,805.4579
790.54944,811.0989,776.4469,829.6337
748.6447,785.7143,807.47253,733.3333
716.0073,760.32965,783.2967,689.011
767.98535,801.02563,813.1135,802.23444
787.72894,795.38464,798.60803,774.0293
814.3223,782.0879,775.64105,772.8205
771.6117,770.0,776.4469,732.1245
769.59705,779.67035,787.72894,807.8755
815.9341,807.47253,801.8315,879.59705
765.16486,781.685,807.47253,761.53845
809.89014,781.685,779.2674,761.9414
711.978,759.5238,790.14655,672.0879
757.1062,781.28204,769.59705,689.81683
841.31866,799.41394,805.05493,825.6044
793.7729,800.6227,740.18317,726.8865
793.36993,798.60803,768.3883,733.3333
784.90845,763.95605,812.3077,728.9011
796.5934,747.03296,800.6227,755.4945
774.83514,767.5824,795.78754,784.90845
783.69965,798.60803,803.0403,778.86444
823.5897,811.0989,782.49084,761.13556
795.78754,787.326,756.7033,766.3736
753.47986,782.49084,749.45056,784.90845
745.82416,770.40295,784.5055,755.09155
749.0476,766.3736,809.0842,765.9707
768.7912,790.9524,830.84247,873.1502
794.17584,775.64105,820.7692,831.6484
816.337,768.3883,751.8681,689.81683
750.65936,769.19415,743.4066,717.619
746.63007,786.1172,806.6667,790.9524
697.47253,779.67035,790.54944,763.5531
762.74725,765.9707,785.7143,722.4542
763.95605,753.0769,761.9414,699.4872
766.77655,772.01465,774.0293,746.63007
730.9158,782.0879,797.8022,776.8498
808.68134,762.74725,786.9231,706.337
786.1172,792.5641,772.8205,784.90845
826.0073,803.0403,750.2564,762.3443
775.2381,779.2674,774.43225,723.663
782.8938,790.54944,848.97437,767.1795
784.10254,791.75824,799.81683,765.56775
774.0293,761.53845,790.14655,770.0
757.1062,772.4176,786.1172,752.674
759.92676,782.0879,781.28204,751.8681
788.5348,786.9231,775.64105,755.89746
794.9817,787.72894,740.18317,756.30035
793.7729,784.10254,759.12085,748.6447
792.5641,778.0586,776.8498,772.4176
811.50183,789.7436,807.0696,750.2564
777.25275,773.6264,834.4689,739.7802
832.8571,804.2491,806.6667,776.4469
828.8278,811.50183,801.02563,784.90845
792.5641,784.10254,792.96704,756.30035
819.5604,774.0293,726.4835,754.68866
795.78754,786.52014,791.3553,751.06226
780.07324,756.7033,750.65936,737.76556
754.2857,770.80585,825.2015,729.304
755.4945,750.2564,805.4579,711.1722
776.8498,744.21246,793.36993,707.9487
796.99634,757.9121,780.87915,728.0952
734.1392,772.4176,782.49084,718.4249
746.2271,761.13556,773.22345,720.84247
776.4469,773.22345,745.0183,714.3956
778.0586,752.27106,717.2161,674.90845
789.7436,754.68866,789.34064,622.52747
747.4359,754.2857,767.98535,607.2161
670.87915,751.8681,763.1502,608.022
641.8681,742.1978,748.6447,592.71063
669.67035,747.03296,736.55676,577.8022
682.96704,758.71796,744.21246,572.96704
643.47986,762.3443,751.8681,574.57874
654.35895,768.7912,750.65936,570.54944
675.7143,774.0293,743.8095,551.2088
784.90845,752.674,769.19415,647.1062
674.10254,776.4469,755.09155,560.87915
714.7985,819.9634,780.87915,586.26373
689.81683,795.78754,772.4176,579.81683
745.82416,828.8278,785.31134,591.50183
733.3333,813.91943,768.3883,569.34064
713.1868,803.44324,759.5238,562.8938
728.9011,803.44324,761.13556,579.011
754.2857,825.2015,779.2674,610.84247
778.0586,846.1539,796.1905,628.1685
782.8938,845.7509,785.31134,629.3773
794.9817,855.82416,781.685,640.2564
810.696,863.47986,805.05493,658.7912
860.65936,897.326,838.49817,711.5751
920.696,940.84247,866.30035,756.7033
924.7253,943.663,878.3883,747.4359
937.2161,943.663,886.4469,757.1062
957.3626,960.58606,900.14655,782.0879
968.6447,976.7033,910.2198,787.72894
981.13556,982.3443,895.7143,789.34064
995.2381,971.4652,873.95605,796.1905
1006.1172,958.97437,878.3883,817.9487
1019.41394,966.63007,898.93774,841.7216
1051.6483,1003.69965,919.89014,866.7033
1072.1978,1027.8755,940.0366,873.5531
1062.9304,1020.6227,942.4542,859.0476
1060.5128,1004.90845,946.4835,863.8828
1061.7216,996.04395,946.8865,875.16486
1064.5421,1010.9524,927.9487,880.0
1085.4945,1016.99634,916.26373,897.72894
1076.63,1001.28204,913.0403,890.07324
1043.9927,980.32965,902.5641,865.09155
1062.5275,969.0476,899.34064,867.9121
1070.989,967.4359,900.14655,872.3443
1062.9304,973.8828,904.57874,870.32965
1064.5421,965.42126,902.1612,868.315
1034.7252,944.87177,884.0293,866.30035
1018.20514,948.49817,872.74725,878.7912
1038.3517,950.9158,869.12085,870.7326
1022.6374,936.8132,853.4066,864.2857
1006.1172,929.5604,850.18317,861.06226
1022.6374,935.6044,859.45056,866.30035
1030.2931,936.4103,860.65936,872.74725
1031.5018,923.5165,857.03296,869.5238
1029.8901,916.6667,854.61536,857.8388
1018.60803,921.0989,849.3773,861.8681
1013.36993,919.0842,849.7802,861.8681
1042.7839,968.6447,878.7912,886.8498
1046.0073,967.4359,880.80585,877.5824
1021.02563,921.50183,860.2564,870.32965
1034.3224,921.0989,863.47986,871.9414
1029.0842,922.3077,871.53845,871.13556
1019.81683,931.1722,867.9121,869.5238
1018.60803,935.2015,855.0183,865.09155
1019.41394,933.1868,860.2564,873.1502
1035.1282,927.9487,863.8828,877.1795
1049.2307,925.12823,863.47986,872.74725
1036.7399,927.9487,898.93774,893.2967
1045.6044,931.1722,909.81683,902.5641
1061.3187,925.12823,909.011,897.326
1043.9927,926.7399,875.9707,874.35895
1055.2748,936.0073,892.8938,892.49084
1056.8865,950.10986,886.4469,894.5055
1072.6007,950.5128,906.99634,899.34064
1081.4652,950.9158,905.78754,914.65204
1052.0513,934.3956,892.49084,886.8498
1035.9341,907.8022,880.40295,878.7912
1042.381,888.0586,874.7619,888.0586
1058.9011,946.4835,895.7143,890.07324
1039.5604,897.72894,877.98535,878.7912
1033.9194,898.1319,862.674,884.83514
1033.5165,890.87915,856.2271,884.0293
1016.5934,898.5348,857.8388,877.98535
1005.31134,890.87915,846.9597,874.35895
994.0293,883.22345,852.6007,879.59705
982.74725,885.64105,853.4066,862.674
979.12085,871.9414,861.4652,848.5714
981.13556,868.71796,865.4945,855.0183
995.64105,884.83514,876.77655,875.9707
982.3443,881.6117,872.3443,872.74725
973.8828,882.8205,851.39197,881.2088
981.53845,877.98535,861.8681,855.82416
992.4176,870.7326,847.76556,859.0476
985.9707,868.315,848.1685,874.7619
988.7912,882.4176,863.47986,880.80585
986.77655,896.1172,871.13556,877.5824
1008.93774,891.685,871.13556,876.77655
990.80585,880.40295,864.2857,872.74725
985.56775,874.35895,869.5238,866.7033
988.3883,877.1795,880.80585,865.89746
992.8205,868.315,879.19415,857.8388
981.13556,857.4359,865.4945,848.1685
964.21246,855.42126,860.65936,849.7802
979.5238,861.4652,863.8828,861.8681
977.9121,865.4945,862.674,864.2857
971.8681,859.45056,850.58606,843.3333
1000.4762,900.9524,877.1795,883.6264
973.8828,853.4066,843.3333,838.9011
960.989,843.73627,853.4066,851.39197
958.97437,851.39197,859.45056,849.3773
960.58606,851.39197,856.2271,839.707
948.0952,850.18317,858.24176,849.7802
949.707,848.1685,859.45056,852.6007
960.58606,852.1978,857.03296,846.55676
947.28937,850.18317,857.03296,848.1685
954.94507,844.1392,860.65936,850.18317
946.4835,842.52747,848.97437,838.9011
943.2601,840.9158,840.5128,847.76556
913.8461,838.0952,828.022,850.989
904.57874,832.4542,822.381,842.52747
907.3993,832.4542,842.52747,840.9158
889.2674,811.50183,835.6777,807.0696
883.6264,814.3223,836.08057,815.9341
877.98535,813.91943,837.28937,817.1429
912.6374,837.28937,850.58606,846.9597
911.8315,833.663,846.55676,833.663
873.5531,803.0403,824.3956,803.8461
881.2088,813.1135,810.696,803.8461
883.22345,812.3077,797.8022,801.4286
886.4469,805.05493,795.38464,827.2161
872.3443,799.011,807.0696,830.0366
869.92676,799.011,819.5604,812.3077
864.2857,787.326,802.6374,779.67035
862.27106,789.34064,804.2491,793.36993
870.7326,802.6374,809.89014,791.75824
856.2271,807.47253,798.60803,790.9524
830.4396,803.8461,800.2198,792.1612
844.94507,794.17584,807.0696,795.38464
868.315,796.99634,816.7399,788.5348
843.73627,787.72894,808.68134,801.4286
836.08057,796.99634,813.1135,796.99634
840.9158,805.05493,813.91943,785.7143
859.0476,806.6667,817.5458,782.49084
862.674,800.6227,810.696,782.8938
848.1685,796.99634,805.4579,783.2967
840.10986,797.8022,795.38464,799.011
849.7802,795.78754,799.41394,792.96704
841.31866,790.9524,794.17584,785.7143
814.3223,781.685,787.326,782.49084
817.5458,772.8205,787.72894,788.1319
826.0073,765.9707,783.69965,785.7143
829.6337,772.4176,783.69965,770.40295
832.0513,779.2674,771.2088,765.9707
834.4689,773.6264,776.04395,782.0879
839.707,797.3993,801.8315,798.20514
826.0073,771.2088,788.1319,772.4176
825.2015,780.07324,794.57874,768.7912
837.6923,776.8498,803.0403,794.57874
830.84247,769.19415,799.011,794.17584
828.022,772.01465,795.38464,787.326
834.4689,789.34064,780.07324,794.9817
836.08057,796.5934,786.1172,796.1905
833.663,782.0879,811.0989,778.86444
832.0513,781.28204,807.47253,765.56775
810.696,782.8938,803.44324,777.6557
801.8315,779.2674,797.3993,783.69965
807.47253,782.8938,794.17584,766.3736
805.4579,784.5055,800.2198,760.32965
817.9487,772.4176,799.81683,764.35895
807.8755,759.92676,788.5348,775.2381
792.5641,763.5531,782.8938,783.2967
806.6667,772.01465,781.28204,777.25275
795.38464,772.01465,772.8205,767.98535
780.87915,754.2857,768.3883,753.47986
778.86444,744.61536,767.98535,757.50916
788.1319,757.9121,777.6557,768.7912
799.81683,766.77655,772.4176,774.43225
809.89014,774.0293,754.68866,782.49084
795.38464,772.8205,767.5824,767.98535
775.64105,760.32965,786.52014,749.85345
771.2088,740.989,788.5348,755.89746
774.83514,741.79486,786.52014,772.8205
786.52014,766.77655,791.75824,780.87915
777.25275,777.25275,792.5641,764.35895
766.3736,772.4176,787.326,767.5824
783.2967,766.77655,782.0879,786.9231
807.47253,758.71796,776.4469,797.3993
804.2491,763.95605,787.326,799.81683
790.9524,765.56775,790.14655,786.52014
786.52014,760.7326,786.9231,777.6557
792.1612,768.7912,795.78754,778.46155
794.17584,774.0293,798.60803,786.9231
797.3993,775.2381,798.60803,790.9524
806.6667,775.64105,794.57874,786.52014
794.17584,765.16486,776.8498,783.2967
784.90845,758.71796,761.13556,785.7143
786.52014,760.7326,754.2857,774.0293
786.52014,758.315,763.1502,768.7912
778.0586,755.89746,766.3736,771.6117
772.8205,759.5238,764.7619,776.8498
782.49084,767.5824,772.01465,782.8938
797.8022,774.43225,776.04395,784.5055
795.38464,759.5238,774.43225,776.04395
820.7692,787.72894,776.4469,791.3553
795.78754,779.2674,772.01465,807.0696
799.81683,782.0879,747.8388,786.52014
813.1135,783.2967,757.1062,774.83514
795.38464,777.6557,789.34064,802.23444
799.41394,774.43225,788.1319,792.1612
808.68134,769.59705,782.0879,784.10254
802.6374,767.1795,785.7143,792.5641
785.31134,761.13556,777.25275,789.7436
795.38464,753.0769,770.40295,798.20514
818.3516,753.0769,784.5055,814.3223
794.17584,759.5238,790.9524,789.7436
782.0879,766.77655,777.6557,761.13556
785.31134,765.56775,769.59705,778.0586
783.2967,767.5824,796.1905,770.0
786.1172,773.22345,796.5934,767.98535
785.31134,774.0293,781.685,760.7326
796.1905,774.0293,757.50916,771.2088
776.4469,778.46155,777.25275,757.1062
784.5055,784.5055,780.4762,781.28204
810.293,792.5641,787.326,794.9817
806.6667,791.75824,791.75824,776.4469
802.6374,790.54944,788.1319,780.07324
794.57874,786.1172,785.7143,786.1172
792.5641,785.31134,794.57874,784.5055
810.293,788.5348,782.49084,801.8315
825.6044,794.9817,761.53845,805.4579
823.5897,794.57874,783.2967,794.17584
800.6227,784.5055,808.2784,792.96704
788.93774,790.54944,798.20514,790.14655
820.3663,795.78754,794.17584,799.011
811.9048,783.2967,794.57874,780.07324
803.44324,800.6227,786.1172,788.93774
794.17584,780.87915,793.36993,782.0879
796.5934,776.4469,796.5934,795.78754
794.57874,771.6117,788.5348,788.93774
805.4579,780.87915,784.5055,802.23444
805.4579,774.43225,777.25275,784.5055
790.14655,751.06226,761.53845,769.59705
800.6227,751.8681,756.7033,782.0879
799.81683,768.3883,763.5531,786.1172
790.54944,771.2088,766.77655,765.9707
790.54944,767.98535,751.8681,756.30035
786.1172,763.95605,751.4652,761.13556
787.326,766.77655,763.95605,775.64105
805.4579,786.52014,761.9414,797.3993
809.89014,786.52014,752.27106,790.9524
803.44324,773.6264,759.5238,771.2088
779.67035,767.98535,774.0293,761.9414
796.5934,775.64105,770.0,767.1795
799.41394,790.9524,761.9414,765.9707
797.8022,789.34064,752.674,784.90845
790.9524,776.04395,758.315,780.4762
790.14655,770.0,767.5824,769.19415
795.78754,764.7619,771.2088,781.685
775.2381,767.1795,775.2381,766.77655
812.71063,774.83514,775.64105,795.38464
811.0989,785.31134,769.59705,793.7729
805.4579,779.2674,763.5531,786.1172
812.3077,778.0586,769.59705,799.41394
805.05493,780.4762,771.2088,803.0403
813.91943,784.5055,771.6117,802.23444
813.91943,779.67035,767.5824,784.90845
811.0989,784.90845,765.56775,795.38464
807.0696,779.67035,751.06226,788.1319
803.44324,783.2967,762.74725,780.4762
804.65204,774.43225,756.7033,773.6264
798.20514,787.326,785.7143,801.8315
813.1135,793.36993,788.93774,816.337
808.68134,778.86444,761.13556,796.1905
808.68134,783.2967,770.0,798.60803
817.5458,789.34064,782.8938,798.60803
799.81683,780.87915,781.28204,788.5348
803.8461,784.5055,761.9414,799.011
816.7399,786.1172,765.56775,809.4872
805.05493,790.9524,772.4176,793.36993
792.5641,789.34064,777.25275,787.326
796.1905,773.6264,768.7912,774.83514
801.4286,765.16486,775.2381,774.0293
785.31134,778.0586,792.96704,782.49084
796.1905,785.7143,774.0293,782.8938
791.3553,787.326,791.75824,784.90845
801.02563,787.72894,787.72894,782.0879
787.72894,780.4762,780.4762,774.0293
786.1172,777.6557,774.0293,776.8498
801.02563,790.14655,770.40295,770.80585
804.2491,796.1905,763.1502,789.34064
799.81683,789.34064,772.01465,788.1319
791.75824,786.9231,769.59705,781.28204
806.6667,787.326,779.67035,771.6117
802.6374,798.20514,774.0293,774.83514
823.1868,803.8461,775.64105,790.9524
790.9524,792.1612,785.7143,768.7912
782.8938,786.1172,773.22345,769.19415
814.3223,796.5934,790.9524,780.4762
784.10254,788.93774,778.0586,774.0293
780.87915,782.0879,777.6557,775.64105
793.7729,783.2967,778.0586,773.6264
800.6227,780.87915,775.64105,775.2381
779.2674,768.7912,763.1502,765.16486
772.8205,760.32965,765.56775,764.35895
792.5641,763.1502,778.86444,783.69965
794.57874,769.59705,778.0586,779.67035
785.7143,760.32965,773.6264,768.7912
796.99634,757.9121,763.5531,771.2088
805.05493,762.74725,763.5531,784.90845
796.1905,760.7326,782.8938,778.86444
809.0842,766.3736,794.9817,773.6264
802.23444,765.56775,791.3553,771.2088
781.685,759.12085,783.2967,760.7326
790.54944,776.04395,787.326,774.43225
765.9707,769.19415,778.86444,766.3736
750.65936,757.1062,774.43225,762.3443
764.35895,762.3443,778.46155,781.28204
781.28204,776.04395,783.2967,789.34064
794.57874,778.46155,780.07324,770.0
784.10254,770.80585,767.5824,760.32965
781.685,755.89746,780.87915,761.9414
774.83514,763.1502,782.49084,770.40295
777.6557,768.3883,784.10254,770.80585
778.86444,766.3736,766.77655,776.04395
779.2674,770.0,769.59705,765.16486
778.0586,761.9414,770.80585,774.83514
788.5348,774.83514,769.59705,761.53845
778.0586,769.59705,767.1795,757.1062
772.01465,765.16486,758.71796,755.4945
784.10254,762.74725,756.7033,763.95605
794.57874,767.5824,769.19415,775.2381
799.81683,773.22345,777.6557,772.8205
787.326,772.8205,774.43225,770.40295
791.3553,776.8498,771.2088,788.93774
802.23444,785.31134,772.01465,796.1905
802.23444,783.69965,771.2088,788.1319
805.8608,784.10254,770.40295,794.57874
817.9487,786.1172,774.0293,794.17584
805.8608,779.67035,776.4469,780.87915
799.81683,781.685,780.87915,798.20514
823.9927,790.54944,783.2967,812.3077
834.87177,799.41394,790.54944,804.65204
821.1722,789.7436,785.31134,796.1905
801.8315,784.10254,775.2381,789.34064
809.89014,787.72894,781.685,790.9524
817.9487,788.93774,790.14655,798.20514
820.7692,798.20514,786.9231,799.011
817.9487,803.44324,785.7143,794.17584
789.7436,791.3553,787.326,787.72894
792.5641,786.52014,780.4762,780.4762
819.9634,797.3993,778.46155,793.36993
813.91943,802.6374,789.34064,787.326
802.6374,792.96704,792.96704,769.19415
800.6227,781.685,786.52014,778.0586
795.78754,776.8498,779.67035,786.1172
802.6374,783.2967,774.43225,789.34064
800.2198,788.93774,777.25275,787.72894
791.75824,782.0879,773.6264,779.2674
789.34064,772.8205,763.95605,770.40295
792.1612,774.43225,767.5824,770.80585
796.1905,783.2967,774.0293,781.685
792.96704,787.326,772.8205,781.685
798.20514,786.52014,772.4176,774.0293
796.1905,782.8938,772.8205,779.2674
787.326,778.86444,768.3883,781.28204
802.6374,778.86444,769.19415,780.4762
803.8461,782.49084,774.0293,783.2967
783.2967,783.2967,773.6264,779.2674
793.7729,776.04395,769.19415,775.64105
793.7729,766.77655,766.77655,782.0879
801.4286,769.59705,761.13556,776.4469
767.1795,767.5824,766.3736,765.9707
750.65936,765.9707,767.1795,772.01465
767.1795,763.5531,767.98535,773.22345
783.69965,780.4762,776.04395,783.69965
788.5348,788.5348,772.8205,788.5348
768.3883,776.04395,760.7326,760.32965
759.5238,776.04395,764.7619,767.98535
795.38464,782.49084,766.77655,784.5055
796.5934,785.7143,769.19415,787.326
788.5348,781.685,770.40295,789.7436
797.3993,777.25275,776.04395,792.96704
810.293,783.69965,778.46155,792.1612
800.2198,771.6117,768.3883,782.8938
794.57874,765.56775,755.09155,792.1612
791.3553,761.9414,753.8828,786.9231
791.75824,767.98535,767.98535,787.326
784.10254,773.22345,770.0,777.6557
776.4469,774.0293,769.59705,766.77655
759.92676,760.7326,767.5824,753.0769
759.5238,754.2857,768.7912,752.27106
772.01465,770.80585,761.53845,740.989
769.59705,764.7619,768.7912,756.7033
767.5824,769.19415,752.27106,745.42126
760.32965,771.6117,757.50916,759.12085
770.40295,774.83514,769.59705,764.35895
774.43225,778.86444,773.6264,760.32965
778.0586,787.326,778.86444,755.4945
783.69965,785.31134,771.2088,754.2857
782.8938,776.04395,763.5531,753.0769
776.8498,774.0293,771.6117,763.5531
774.0293,775.2381,778.46155,769.19415
782.0879,774.43225,778.86444,771.6117
784.90845,764.7619,766.3736,755.4945
774.43225,752.27106,751.8681,746.63007
753.47986,746.63007,746.2271,751.8681
767.98535,753.8828,752.27106,755.89746
778.86444,761.13556,761.13556,758.71796
769.19415,762.3443,759.92676,751.8681
766.77655,761.53845,755.09155,745.0183
768.7912,761.13556,755.4945,758.71796
774.0293,767.5824,759.5238,770.0
775.64105,775.64105,760.7326,758.71796
771.2088,776.04395,756.30035,737.3626
761.13556,770.0,751.06226,734.1392
758.71796,770.80585,751.06226,719.6337
760.7326,779.2674,763.5531,753.47986
767.98535,774.43225,757.1062,763.5531
760.32965,782.8938,763.1502,738.1685
765.9707,775.64105,761.13556,740.989
772.01465,776.4469,769.59705,756.30035
761.53845,776.04395,764.7619,750.65936
757.50916,776.4469,761.13556,731.7216
774.83514,783.69965,778.0586,748.24176
789.34064,786.1172,782.0879,758.315
773.22345,782.0879,772.4176,743.4066
770.80585,782.49084,777.25275,751.4652
789.34064,790.14655,791.3553,768.3883
803.8461,807.8755,804.2491,777.6557
817.9487,813.1135,807.47253,781.685
809.89014,819.5604,812.71063,792.96704
813.1135,831.2454,822.381,807.8755
821.5751,825.2015,823.9927,799.011
832.8571,830.0366,840.9158,813.1135
844.1392,841.7216,838.9011,818.3516
837.28937,846.55676,836.4835,818.7546
833.2601,840.5128,842.52747,810.696
844.1392,841.31866,842.1245,818.3516
821.1722,834.0659,849.3773,815.12823
837.28937,843.3333,838.49817,824.7985
818.7546,830.84247,861.06226,813.91943
821.978,824.3956,821.5751,805.8608
824.3956,831.2454,835.6777,806.6667
820.3663,836.8865,853.8095,820.7692
825.2015,835.2747,846.1539,817.5458
828.4249,832.0513,845.34796,824.7985
836.08057,832.4542,840.10986,822.7839
844.94507,838.0952,845.7509,823.1868
831.6484,823.5897,831.6484,810.293
827.619,823.5897,826.0073,821.978
829.6337,831.2454,852.1978,832.0513
839.304,833.2601,840.10986,844.1392
854.61536,828.4249,843.3333,847.76556
832.4542,830.4396,851.39197,821.978
842.52747,828.022,841.7216,826.0073
815.12823,820.3663,830.84247,803.8461
809.0842,804.65204,819.9634,809.89014
808.68134,792.1612,823.5897,798.20514
805.8608,793.36993,823.9927,804.2491
796.1905,795.38464,816.7399,793.36993
789.34064,784.90845,803.8461,778.0586
789.34064,768.7912,789.34064,788.1319
792.1612,770.40295,796.1905,794.17584
797.3993,779.2674,796.5934,781.685
780.07324,772.4176,782.49084,757.50916
760.32965,768.3883,775.2381,745.82416
809.89014,799.41394,821.978,810.696
765.9707,773.6264,775.64105,767.98535
760.32965,759.12085,770.40295,757.9121
755.4945,766.3736,781.685,766.77655
765.9707,771.2088,783.2967,782.8938
764.35895,772.01465,778.46155,777.25275
784.90845,770.40295,782.8938,791.75824
788.93774,762.3443,793.7729,784.5055
778.46155,765.9707,780.87915,774.83514
781.28204,780.87915,781.685,777.6557
771.6117,781.685,795.38464,767.5824
760.32965,759.92676,775.64105,749.0476
756.30035,763.1502,788.93774,760.7326
767.1795,776.04395,797.3993,765.56775
772.8205,769.19415,792.1612,760.32965
763.95605,767.98535,788.5348,751.06226
770.0,776.04395,790.54944,755.89746
790.9524,774.83514,789.34064,770.40295
789.7436,770.0,784.5055,778.46155
776.8498,767.98535,781.685,763.95605
788.1319,767.98535,773.6264,762.3443
784.10254,766.3736,776.8498,767.1795
774.83514,767.1795,785.31134,767.1795
772.4176,774.83514,788.1319,772.4176
763.1502,774.43225,786.52014,763.95605
763.5531,768.3883,774.83514,765.16486
775.64105,771.2088,786.52014,758.71796
767.98535,765.16486,778.46155,770.0
772.8205,769.59705,788.93774,765.16486
780.87915,773.6264,782.0879,760.32965
770.80585,777.6557,778.0586,760.7326
755.09155,778.0586,779.2674,762.74725
759.12085,774.83514,787.326,764.7619
769.59705,781.28204,799.011,779.2674
768.7912,776.8498,793.7729,779.67035
772.01465,778.0586,783.69965,770.40295
774.83514,777.6557,788.93774,774.0293
776.4469,770.40295,790.54944,774.0293
780.07324,778.0586,788.5348,781.28204
777.25275,783.2967,795.38464,766.77655
772.8205,787.72894,792.1612,767.5824
778.46155,786.9231,790.54944,780.87915
767.98535,792.1612,786.1172,773.6264
778.0586,796.1905,793.36993,780.07324
794.57874,800.2198,800.2198,788.1319
791.75824,787.72894,788.5348,776.04395
774.83514,770.40295,784.5055,754.2857
781.28204,779.67035,797.8022,776.4469
792.1612,792.5641,797.8022,799.011
779.2674,789.34064,790.14655,780.07324
788.5348,778.46155,781.28204,774.83514
786.1172,778.0586,782.49084,794.57874
794.9817,785.31134,786.52014,794.9817
772.4176,785.31134,790.9524,763.5531
796.99634,782.49084,785.31134,770.80585
778.86444,783.69965,785.7143,767.5824
786.9231,761.13556,775.2381,752.674
773.6264,758.71796,773.22345,761.9414
771.2088,769.19415,777.25275,774.43225
787.326,780.4762,784.5055,776.04395
788.1319,782.49084,791.3553,776.4469
779.67035,775.2381,786.9231,774.43225
777.6557,775.64105,789.34064,782.0879
792.96704,791.75824,803.44324,789.7436
789.34064,792.5641,797.8022,768.7912
778.0586,785.7143,783.2967,762.74725
763.5531,776.04395,777.6557,759.92676
788.1319,784.10254,797.3993,795.78754
765.56775,774.0293,780.4762,765.16486
773.22345,781.685,788.5348,776.8498
771.6117,778.46155,785.7143,765.56775
772.4176,776.8498,780.4762,768.3883
769.59705,776.4469,783.69965,774.83514
767.98535,782.49084,787.72894,777.6557
778.86444,795.78754,792.96704,792.96704
797.8022,795.78754,792.1612,791.3553
800.6227,784.90845,782.49084,784.10254
795.78754,784.90845,781.685,785.7143
796.5934,792.5641,792.1612,793.36993
807.0696,796.99634,801.02563,803.0403
816.337,797.8022,795.78754,803.0403
809.89014,794.9817,797.3993,792.96704
794.9817,784.10254,794.17584,786.52014
796.99634,777.6557,788.1319,794.9817
802.6374,783.69965,793.36993,797.8022
801.4286,792.5641,800.2198,796.99634
793.36993,788.93774,803.8461,782.49084
783.2967,781.28204,798.60803,768.7912
785.7143,785.7143,794.17584,784.90845
811.9048,793.36993,792.1612,812.3077
806.6667,792.1612,800.2198,798.20514
782.8938,785.31134,801.4286,770.80585
774.83514,771.6117,787.326,773.22345
776.4469,770.0,784.5055,776.04395
783.69965,772.4176,787.72894,766.77655
783.2967,771.2088,777.25275,770.0
790.54944,772.01465,785.31134,769.59705
775.64105,767.1795,765.56775,758.71796
780.4762,769.19415,774.0293,771.2088
769.59705,771.2088,778.86444,766.77655
781.28204,768.7912,767.98535,761.13556
784.10254,762.74725,765.56775,756.30035
767.98535,763.5531,770.0,768.3883
778.86444,764.35895,772.8205,770.40295
776.8498,769.59705,784.90845,776.8498
788.1319,770.40295,774.43225,774.0293
782.49084,764.7619,772.01465,766.3736
770.40295,761.9414,769.59705,753.47986
770.0,770.0,779.2674,765.56775
779.2674,769.59705,773.22345,774.83514
763.5531,767.98535,772.01465,768.3883
767.1795,766.77655,778.0586,761.53845
767.98535,763.1502,773.22345,765.56775
762.3443,763.95605,772.4176,769.19415
770.40295,770.80585,770.0,772.8205
771.6117,777.6557,774.83514,772.01465
776.4469,780.4762,786.1172,769.19415
775.2381,777.25275,784.10254,769.59705
776.8498,775.2381,778.86444,767.5824
788.1319,782.0879,778.86444,772.01465
803.8461,791.75824,782.49084,785.31134
813.1135,796.99634,777.6557,786.52014
764.35895,776.8498,764.7619,772.8205
778.46155,783.69965,779.67035,782.8938
778.86444,792.1612,783.2967,783.2967
776.04395,792.5641,778.86444,774.43225
779.2674,784.5055,776.04395,769.59705
788.1319,775.64105,767.5824,779.2674
780.07324,779.67035,774.0293,782.0879
782.0879,782.8938,787.326,774.83514
794.9817,778.86444,790.54944,777.25275
776.8498,785.7143,763.5531,770.0
776.4469,780.07324,792.96704,773.6264
765.9707,779.67035,789.7436,768.7912
776.04395,780.07324,787.326,777.6557
778.86444,785.31134,786.9231,786.52014
786.9231,790.54944,786.9231,790.54944
796.1905,794.57874,795.38464,786.1172
794.57874,794.17584,792.96704,778.46155
793.7729,791.75824,788.5348,781.685
799.41394,786.1172,792.96704,778.0586
799.011,782.0879,784.5055,780.07324
802.23444,775.2381,778.86444,780.87915
814.3223,784.10254,786.52014,795.78754
796.1905,786.1172,790.9524,776.4469
806.26373,792.1612,788.93774,809.4872
805.8608,790.14655,788.5348,812.71063
797.8022,782.8938,787.72894,800.2198
808.68134,781.685,782.0879,790.9524
794.17584,780.07324,784.5055,790.54944
799.81683,780.4762,786.1172,794.9817
790.14655,781.28204,790.14655,797.8022
797.3993,785.31134,786.9231,785.31134
796.5934,789.7436,788.1319,793.7729
807.0696,799.41394,798.60803,794.17584
795.38464,782.49084,790.9524,783.69965
813.5165,807.0696,801.8315,805.05493
809.0842,805.05493,801.8315,805.05493
801.8315,799.41394,809.4872,790.14655
803.8461,797.8022,816.337,795.78754
822.381,799.011,811.0989,807.47253
821.978,801.4286,809.0842,814.7253
804.2491,803.0403,808.68134,809.89014
803.8461,796.99634,814.3223,806.26373
813.1135,787.72894,813.5165,817.1429
802.6374,785.31134,804.2491,815.12823
796.1905,786.52014,806.26373,799.011
797.8022,786.9231,807.0696,798.60803
789.34064,782.0879,797.3993,802.6374
787.72894,772.8205,791.75824,803.0403
810.696,786.9231,797.8022,810.696
798.60803,776.8498,794.17584,805.8608
815.12823,782.49084,795.38464,803.0403
805.4579,781.28204,791.75824,786.1172
798.20514,782.0879,786.9231,790.9524
783.2967,770.40295,788.5348,786.9231
792.96704,781.685,793.7729,785.31134
776.4469,767.98535,786.9231,772.01465
787.326,780.07324,794.57874,787.72894
778.0586,768.7912,788.93774,780.87915
795.78754,778.0586,786.9231,797.8022
776.04395,767.1795,787.326,775.2381
784.5055,769.19415,769.19415,774.43225
792.5641,773.22345,772.8205,790.14655
788.93774,777.6557,783.2967,786.9231
789.34064,780.07324,786.52014,778.46155
794.57874,773.6264,790.54944,785.7143
790.54944,770.80585,792.5641,794.57874
797.3993,772.4176,793.36993,792.5641
811.9048,778.86444,798.60803,800.2198
811.50183,781.28204,799.011,804.65204
780.87915,772.8205,788.5348,781.28204
785.7143,771.6117,782.8938,782.49084
803.8461,775.64105,791.3553,791.75824
793.36993,772.01465,790.14655,788.1319
812.71063,782.49084,787.326,806.26373
808.68134,782.8938,782.49084,797.3993
791.3553,769.59705,785.31134,776.4469
798.60803,777.25275,788.1319,785.7143
805.4579,776.4469,792.96704,783.69965
799.81683,776.8498,789.34064,794.17584
782.0879,776.04395,788.93774,790.9524
787.72894,780.07324,798.60803,767.98535
796.99634,784.90845,804.2491,774.83514
789.7436,780.07324,788.1319,774.43225
769.59705,764.7619,770.40295,759.12085
764.7619,756.30035,764.35895,749.45056
761.9414,750.65936,755.09155,748.24176
763.95605,752.674,750.65936,755.09155
781.685,769.19415,759.92676,776.4469
794.17584,774.83514,775.64105,801.4286
794.9817,758.315,765.56775,778.86444
778.0586,747.4359,755.4945,760.32965
768.7912,751.06226,749.45056,763.5531
768.3883,754.68866,750.2564,765.16486
760.32965,754.2857,770.80585,766.3736
763.5531,754.68866,771.6117,765.9707
782.0879,759.5238,765.56775,775.2381
798.20514,775.2381,772.01465,784.90845
796.99634,774.0293,773.22345,792.5641
782.49084,761.9414,768.3883,778.0586
784.10254,766.3736,772.4176,779.2674
784.90845,773.6264,779.2674,780.4762
793.36993,768.7912,769.59705,776.8498
789.7436,768.7912,776.04395,770.80585
776.8498,772.01465,774.43225,778.46155
795.38464,771.2088,776.04395,770.80585
770.80585,765.9707,775.64105,779.67035
791.3553,770.80585,782.0879,780.07324
799.81683,777.6557,777.25275,775.2381
771.6117,774.43225,767.5824,761.9414
779.67035,771.2088,773.6264,765.9707
770.80585,779.2674,765.56775,759.12085
771.2088,771.6117,764.35895,748.6447
790.14655,765.9707,759.5238,753.0769
771.2088,767.1795,768.7912,774.83514
784.90845,770.40295,771.6117,772.4176
788.1319,764.7619,759.5238,770.0
767.5824,753.8828,764.7619,759.5238
780.4762,765.56775,772.4176,771.2088
771.6117,767.5824,774.43225,762.74725
781.28204,756.30035,766.77655,775.2381
777.6557,763.1502,773.22345,790.14655
782.0879,763.1502,767.98535,774.83514
771.2088,757.1062,755.09155,767.1795
780.07324,771.6117,763.5531,784.90845
781.28204,774.43225,780.4762,794.57874
784.90845,770.40295,788.1319,794.17584
792.96704,770.0,789.7436,777.25275
778.86444,769.59705,775.64105,788.1319
778.46155,771.6117,792.5641,762.3443
768.7912,772.4176,787.72894,769.59705
768.3883,774.83514,781.28204,773.22345
784.90845,788.1319,784.10254,778.0586
783.69965,782.8938,788.1319,774.43225
765.16486,767.1795,780.4762,761.13556
770.0,773.6264,776.4469,768.3883
787.72894,778.0586,782.8938,776.04395
802.6374,790.14655,792.1612,792.96704
808.68134,786.52014,788.93774,808.2784
803.44324,758.315,775.64105,804.65204
788.5348,765.56775,772.4176,799.011
787.326,794.57874,782.0879,799.81683
786.1172,798.20514,782.8938,793.36993
768.7912,767.1795,784.90845,759.92676
785.7143,789.34064,787.326,778.46155
786.1172,783.2967,785.31134,778.0586
783.2967,780.07324,781.685,797.3993
797.8022,783.2967,782.8938,810.293
811.9048,790.14655,791.3553,799.41394
788.5348,788.5348,795.78754,781.28204
763.95605,779.67035,783.2967,769.19415
763.5531,771.6117,771.6117,763.5531
772.4176,781.685,774.83514,770.80585
789.7436,793.7729,785.7143,782.49084
809.4872,803.8461,797.3993,790.14655
797.3993,794.17584,795.78754,782.8938
772.8205,765.9707,782.8938,763.95605
766.77655,761.9414,777.25275,764.7619
776.04395,779.67035,776.4469,772.8205
802.23444,795.38464,783.2967,776.8498
807.47253,796.99634,801.02563,785.31134
794.57874,796.99634,808.2784,794.57874
801.4286,790.54944,797.8022,790.54944
799.011,784.90845,793.7729,792.96704
803.0403,800.2198,802.6374,798.20514
811.0989,802.23444,800.2198,792.1612
805.05493,797.3993,794.17584,795.38464
803.44324,805.8608,795.38464,801.4286
800.2198,807.0696,800.2198,807.47253
820.3663,790.54944,791.75824,801.8315
805.05493,770.40295,785.31134,801.8315
800.2198,779.2674,791.3553,809.4872
803.8461,798.60803,792.96704,816.337
790.9524,785.7143,783.69965,787.72894
807.0696,800.6227,798.20514,805.4579
775.64105,765.9707,774.0293,756.7033
780.07324,768.3883,775.2381,767.1795
784.5055,779.67035,781.28204,780.4762
780.4762,788.5348,786.9231,780.07324
778.0586,792.96704,782.49084,774.0293
773.22345,780.87915,770.40295,762.74725
779.2674,770.40295,765.16486,764.7619
776.8498,773.22345,771.6117,773.22345
775.2381,780.07324,783.2967,758.315
764.7619,765.9707,772.01465,748.24176
772.8205,763.5531,773.6264,759.92676
782.0879,775.64105,784.10254,769.59705
762.3443,772.4176,779.67035,750.65936
749.85345,765.9707,767.1795,734.1392
758.315,770.0,774.83514,740.58606
778.0586,776.04395,779.67035,770.0
770.40295,773.6264,774.43225,774.43225
749.85345,761.9414,780.4762,749.45056
744.61536,760.32965,777.25275,747.4359
759.92676,774.43225,786.1172,748.24176
761.9414,776.8498,786.9231,750.2564
756.7033,773.22345,783.69965,768.7912
763.1502,782.49084,781.685,772.8205
768.3883,793.36993,785.31134,769.59705
769.59705,783.2967,797.3993,764.35895
776.04395,777.6557,805.05493,759.12085
763.1502,774.83514,804.65204,763.5531
738.1685,764.35895,798.20514,749.45056
737.76556,767.1795,791.3553,743.4066
743.00366,767.98535,791.3553,740.18317
739.7802,762.74725,796.5934,735.7509
732.1245,755.4945,793.7729,724.87177
767.1795,782.0879,803.44324,771.6117
772.01465,783.2967,804.65204,783.2967
760.7326,772.4176,789.34064,757.9121
757.1062,770.0,783.2967,740.989
750.65936,760.32965,788.93774,747.4359
743.4066,748.6447,787.72894,741.79486
733.73627,747.4359,784.5055,734.94507
744.61536,752.674,782.49084,743.4066
766.77655,757.1062,780.4762,743.4066
754.68866,743.4066,774.83514,741.79486
751.8681,741.39197,778.0586,759.92676
751.4652,747.03296,777.25275,765.56775
754.68866,747.03296,774.83514,753.47986
751.06226,747.8388,770.40295,741.39197
742.1978,744.61536,748.24176,743.00366
742.1978,757.9121,760.32965,758.315
744.61536,770.40295,802.23444,763.95605
762.3443,765.9707,808.2784,755.89746
774.43225,782.0879,805.8608,761.53845
765.16486,791.75824,807.47253,774.83514
766.3736,776.4469,805.05493,770.80585
765.9707,774.83514,804.65204,763.95605
764.35895,775.64105,796.99634,768.7912
773.6264,778.46155,784.5055,771.2088
774.43225,776.4469,784.10254,777.6557
754.68866,759.5238,795.38464,760.7326
767.5824,763.95605,807.47253,780.07324
776.4469,744.21246,797.8022,777.25275
765.56775,740.58606,792.96704,767.1795
762.74725,756.30035,788.93774,776.8498
745.0183,737.3626,786.1172,766.77655
743.4066,728.9011,795.78754,756.30035
790.14655,771.6117,811.9048,797.3993
753.47986,743.4066,795.78754,755.4945
760.7326,750.2564,783.2967,772.01465
770.40295,751.06226,783.2967,790.14655
793.36993,764.7619,791.3553,800.2198
764.7619,751.06226,788.5348,755.09155
808.2784,774.43225,784.5055,805.05493
797.8022,764.35895,774.43225,793.7729
778.46155,751.4652,786.9231,781.685
776.4469,750.65936,790.14655,776.04395
772.01465,757.9121,788.5348,782.0879
778.0586,762.74725,793.7729,788.1319
796.1905,766.77655,786.1172,790.54944
787.72894,765.56775,776.8498,782.8938
785.31134,769.19415,792.5641,792.1612
780.07324,771.6117,789.7436,794.9817
787.326,774.0293,777.6557,788.1319
786.9231,770.80585,768.3883,783.2967
767.98535,760.32965,770.80585,780.07324
778.46155,764.7619,786.1172,779.67035
770.80585,749.0476,774.0293,770.0
779.67035,759.12085,785.7143,774.43225
784.5055,773.6264,784.90845,778.0586
780.07324,766.3736,775.64105,775.2381
774.0293,758.71796,772.8205,776.04395
772.01465,763.95605,777.6557,780.4762
785.31134,770.80585,778.46155,780.87915
778.86444,762.3443,767.98535,772.4176
768.3883,758.71796,765.56775,772.01465
763.1502,759.12085,763.95605,774.43225
769.19415,760.7326,770.80585,767.98535
775.2381,767.98535,784.90845,767.5824
778.46155,769.19415,783.69965,756.30035
776.8498,770.40295,784.5055,784.90845
768.7912,762.3443,780.07324,753.0769
770.40295,765.56775,791.75824,766.3736
774.43225,774.43225,795.38464,768.7912
781.685,784.90845,797.3993,768.3883
768.3883,779.2674,791.3553,763.95605
770.80585,770.0,773.6264,770.0
778.46155,774.83514,797.3993,779.2674
778.86444,778.46155,788.93774,765.9707
783.69965,776.04395,783.69965,784.10254
780.4762,784.5055,788.1319,764.7619
772.01465,774.83514,786.9231,759.5238
763.95605,772.4176,778.0586,764.7619
772.8205,781.685,780.07324,778.46155
777.25275,780.4762,787.72894,782.8938
794.9817,780.07324,795.38464,786.52014
780.87915,788.1319,796.99634,777.6557
786.1172,790.9524,801.8315,790.14655
805.4579,806.26373,802.6374,802.6374
811.0989,813.5165,799.41394,786.9231
801.8315,807.47253,797.3993,769.59705
798.60803,805.4579,799.81683,784.5055
795.38464,811.0989,802.6374,798.20514
790.9524,811.0989,797.8022,778.86444
796.5934,799.011,797.8022,767.1795
778.46155,781.28204,795.78754,754.68866
770.40295,780.4762,795.78754,761.9414
805.05493,790.54944,798.20514,788.1319
780.87915,789.7436,792.96704,788.5348
786.52014,796.5934,785.31134,774.43225
787.326,799.011,789.7436,757.50916
769.19415,780.07324,782.49084,752.674
752.674,768.3883,762.3443,745.42126
753.0769,775.2381,761.53845,747.03296
767.98535,789.34064,778.46155,751.4652
770.80585,793.7729,784.10254,754.68866
774.0293,788.5348,780.87915,758.71796
780.07324,787.72894,785.31134,768.3883
767.98535,790.54944,792.5641,776.04395
782.0879,799.81683,797.3993,783.69965
801.4286,798.20514,803.8461,779.67035
805.4579,791.3553,797.8022,792.1612
795.38464,794.57874,805.8608,810.293
790.9524,800.6227,810.293,790.54944
788.5348,805.8608,813.5165,782.0879
794.57874,804.65204,815.5311,782.8938
799.81683,785.7143,812.3077,792.96704
796.1905,784.90845,815.5311,793.36993
788.5348,796.5934,814.3223,791.3553
794.9817,801.02563,799.011,791.3553
803.8461,806.6667,792.5641,787.326
800.2198,791.3553,801.4286,769.59705
793.7729,803.0403,800.6227,792.1612
790.14655,790.14655,809.89014,791.3553
791.75824,796.5934,811.50183,794.9817
778.86444,802.23444,798.20514,786.1172
766.77655,792.96704,789.34064,765.56775
767.98535,785.31134,790.14655,764.7619
767.1795,786.52014,797.3993,777.25275
766.3736,787.72894,807.47253,780.87915
787.72894,777.6557,807.47253,787.326
803.44324,775.2381,802.6374,782.49084
764.7619,772.4176,792.96704,769.19415
752.27106,762.3443,785.31134,764.7619
774.0293,772.01465,784.90845,776.4469
778.0586,777.25275,784.10254,777.25275
781.685,775.64105,782.8938,776.04395
789.7436,777.25275,768.7912,778.86444
782.8938,772.4176,758.315,772.8205
785.7143,776.04395,774.83514,780.07324
796.1905,778.86444,784.10254,772.8205
783.2967,776.04395,779.2674,760.7326
759.5238,768.3883,773.22345,752.674
755.09155,763.95605,772.8205,755.4945
757.1062,774.83514,780.87915,771.2088
760.32965,773.6264,782.8938,763.95605
763.1502,770.0,778.46155,761.53845
747.03296,771.2088,776.4469,753.0769
751.8681,768.7912,789.34064,747.8388
769.19415,773.6264,789.34064,755.09155
775.2381,782.8938,785.31134,759.92676
765.9707,790.54944,803.8461,759.12085
786.1172,790.9524,808.68134,761.9414
792.1612,780.4762,793.36993,765.9707
778.0586,783.2967,793.7729,779.67035
778.46155,795.38464,800.6227,776.4469
774.83514,800.6227,801.02563,774.0293
783.69965,798.20514,800.6227,780.87915
788.1319,790.14655,789.7436,781.28204
783.2967,792.1612,785.31134,779.67035
788.93774,791.75824,791.3553,782.0879
797.8022,792.5641,791.3553,773.22345
789.34064,789.7436,780.07324,767.1795
777.25275,786.52014,778.86444,764.35895
768.3883,782.49084,783.2967,761.53845
781.685,784.5055,788.5348,773.6264
783.2967,791.3553,790.54944,773.22345
768.3883,787.72894,788.93774,760.7326
759.5238,780.87915,781.28204,764.35895
759.5238,776.4469,773.22345,769.59705
758.71796,770.40295,772.01465,759.12085
759.12085,769.59705,760.7326,750.2564
763.5531,764.35895,756.30035,747.4359
757.9121,761.13556,772.01465,745.82416
761.9414,775.2381,785.7143,753.47986
765.9707,774.83514,777.25275,744.61536
780.87915,774.0293,772.4176,751.06226
787.72894,777.6557,769.59705,756.30035
766.77655,768.3883,782.49084,758.315
755.89746,763.1502,790.9524,761.13556
774.83514,774.0293,790.9524,769.59705
751.4652,766.3736,768.3883,750.2564
781.28204,790.54944,793.7729,777.6557
780.07324,787.326,788.1319,772.8205
784.10254,783.69965,790.14655,779.67035
795.38464,790.14655,786.52014,785.31134
804.65204,789.7436,784.90845,793.36993
799.81683,791.3553,797.8022,792.1612
775.64105,792.5641,796.5934,773.6264
758.71796,788.1319,786.1172,759.5238
777.25275,789.34064,781.685,767.98535
786.1172,786.1172,781.28204,778.0586
771.6117,781.685,780.87915,766.3736
765.16486,782.8938,777.6557,766.77655
772.8205,784.90845,772.01465,777.25275
793.7729,786.9231,776.4469,768.7912
781.685,784.5055,772.8205,768.3883
768.3883,785.31134,780.4762,761.13556
777.6557,786.1172,768.7912,777.25275
793.36993,782.8938,803.8461,791.3553
799.41394,789.7436,807.8755,790.9524
789.34064,782.0879,792.96704,766.77655
779.2674,772.01465,777.6557,755.4945
781.685,773.22345,780.07324,772.01465
781.28204,786.1172,771.2088,770.0
776.4469,784.90845,794.9817,768.7912
790.9524,780.07324,784.90845,783.69965
786.9231,786.52014,786.1172,770.40295
785.7143,783.2967,788.1319,772.01465
760.32965,776.04395,791.75824,772.01465
773.6264,774.43225,787.72894,764.35895
778.46155,784.10254,790.14655,782.8938
796.1905,786.1172,786.9231,777.6557
773.6264,776.4469,774.83514,757.50916
764.7619,765.16486,773.6264,765.16486
769.19415,762.74725,777.6557,781.28204
772.01465,768.3883,789.34064,782.49084
780.87915,780.07324,799.41394,786.9231
789.34064,786.1172,783.69965,777.25275
780.4762,778.86444,772.01465,777.25275
768.3883,770.80585,776.4469,772.4176
768.7912,770.40295,784.10254,767.5824
774.43225,771.6117,776.8498,764.35895
782.49084,775.2381,767.1795,761.13556
768.3883,774.83514,778.86444,762.74725
760.7326,755.89746,766.77655,753.47986
772.4176,757.1062,764.35895,757.1062
779.2674,763.1502,765.9707,767.1795
765.9707,754.2857,763.1502,763.95605
756.7033,766.3736,779.2674,761.13556
775.64105,761.13556,770.80585,778.0586
783.69965,777.25275,783.2967,784.10254
785.7143,784.5055,788.5348,782.0879
801.8315,778.46155,784.10254,778.0586
777.25275,782.8938,788.5348,779.2674
796.1905,775.2381,780.87915,777.6557
786.1172,784.90845,798.20514,783.2967
799.81683,788.93774,794.57874,785.7143
778.0586,784.90845,803.44324,780.87915
801.02563,787.326,801.02563,786.1172
793.36993,786.1172,803.44324,788.1319
786.1172,787.72894,800.2198,786.52014
784.5055,792.1612,796.1905,781.28204
788.5348,793.7729,785.31134,774.83514
793.7729,792.5641,789.34064,784.5055
793.36993,799.011,795.78754,789.34064
797.8022,796.99634,793.36993,780.4762
794.17584,798.60803,798.20514,785.7143
795.38464,794.9817,799.011,784.10254
814.7253,792.5641,805.4579,778.0586
796.1905,790.14655,807.0696,775.2381
786.1172,793.7729,799.81683,787.326
810.293,795.78754,799.011,791.75824
805.4579,791.75824,796.1905,784.5055
792.96704,788.93774,796.1905,778.0586
794.9817,788.5348,794.57874,778.46155
795.78754,790.14655,800.6227,785.31134
805.8608,793.7729,807.0696,791.3553
811.0989,800.2198,804.2491,801.02563
806.26373,805.8608,797.3993,810.696
804.65204,797.8022,794.57874,809.4872
807.47253,794.17584,803.0403,810.293
797.8022,788.1319,795.78754,799.81683
783.69965,783.2967,798.60803,780.87915
790.14655,784.10254,794.9817,790.9524
774.83514,776.4469,788.1319,769.19415
778.0586,775.64105,788.1319,772.8205
787.326,776.04395,796.1905,780.87915
787.326,774.83514,794.9817,784.10254
774.83514,776.04395,784.10254,775.2381
762.74725,774.43225,778.46155,763.5531
751.4652,770.0,770.80585,763.95605
761.53845,771.2088,774.0293,779.2674
786.9231,781.28204,790.54944,798.60803
790.14655,792.5641,796.1905,783.69965
776.04395,790.54944,792.1612,780.07324
777.25275,784.10254,786.9231,787.326
774.0293,786.1172,782.8938,776.4469
778.86444,789.34064,782.0879,779.67035
783.69965,785.31134,796.5934,776.04395
776.8498,792.1612,796.1905,776.04395
784.10254,792.5641,803.44324,786.52014
798.20514,796.5934,799.81683,793.36993
795.78754,796.1905,796.5934,790.14655
800.6227,792.1612,805.8608,788.93774
803.8461,794.57874,813.5165,790.9524
795.38464,787.326,813.5165,799.81683
782.8938,779.2674,805.05493,799.011
787.72894,786.1172,791.3553,784.10254
775.64105,780.4762,792.5641,770.80585
767.5824,782.8938,781.685,750.65936
767.5824,777.25275,784.90845,767.98535
761.13556,773.6264,788.93774,764.35895
772.8205,783.2967,794.57874,771.2088
780.07324,783.69965,790.9524,770.0
768.3883,780.07324,784.90845,776.4469
770.0,778.0586,783.69965,786.1172
770.80585,770.40295,786.52014,773.22345
777.6557,781.685,782.49084,791.3553
784.5055,782.0879,783.2967,783.69965
784.90845,781.28204,781.28204,778.46155
783.2967,782.0879,777.25275,777.6557
774.0293,782.49084,772.8205,776.4469
768.7912,782.8938,783.2967,774.43225
782.8938,785.7143,796.1905,773.22345
784.5055,782.49084,787.72894,764.7619
784.5055,776.04395,784.5055,768.7912
792.96704,782.49084,782.49084,781.28204
782.0879,780.07324,778.86444,776.4469
777.25275,773.6264,789.34064,770.40295
789.7436,774.83514,789.34064,767.5824
794.57874,787.72894,784.10254,780.07324
806.6667,800.6227,805.8608,800.2198
801.4286,798.60803,790.9524,797.8022
799.81683,801.4286,813.1135,786.52014
784.90845,793.7729,807.0696,764.7619
789.7436,797.8022,808.68134,767.98535
777.25275,789.34064,803.8461,770.80585
776.4469,789.7436,803.0403,779.2674
776.04395,791.75824,804.65204,777.25275
774.0293,788.5348,793.36993,774.43225
781.28204,794.9817,803.44324,773.22345
771.2088,778.46155,791.3553,770.0
805.05493,796.5934,807.47253,796.99634
788.5348,788.5348,802.6374,777.6557
805.4579,796.99634,808.68134,793.7729
794.17584,789.34064,795.78754,775.64105
793.36993,781.28204,797.8022,781.685
791.3553,778.46155,811.0989,783.2967
780.4762,784.10254,806.6667,771.6117
778.86444,785.31134,804.65204,760.7326
773.22345,788.1319,803.8461,765.16486
771.6117,793.36993,801.8315,777.6557
771.2088,786.9231,798.60803,776.4469
788.5348,785.7143,800.2198,780.07324
777.6557,788.1319,800.6227,780.4762
786.1172,784.5055,795.38464,772.4176
780.4762,786.9231,790.14655,777.6557
780.4762,786.9231,788.93774,780.4762
777.25275,784.10254,796.1905,777.6557
776.8498,784.90845,801.4286,771.2088
778.0586,784.5055,796.99634,763.1502
763.5531,776.4469,786.1172,759.12085
745.0183,773.6264,784.90845,754.2857
765.56775,779.67035,786.1172,758.315
780.07324,784.5055,786.1172,755.09155
770.40295,780.07324,785.7143,753.8828
766.3736,771.6117,780.07324,757.9121
770.0,767.1795,772.4176,752.27106
771.6117,772.4176,777.6557,759.5238
768.7912,782.0879,790.14655,774.0293
770.80585,777.25275,784.5055,767.98535
757.9121,764.35895,779.67035,761.13556
769.19415,771.2088,788.5348,774.0293
780.4762,778.0586,788.5348,781.28204
778.0586,783.2967,792.1612,781.28204
783.69965,783.2967,796.1905,785.7143
786.52014,782.49084,790.14655,784.5055
788.93774,782.0879,796.1905,782.0879
796.1905,777.6557,804.65204,782.0879
793.7729,786.1172,802.23444,779.67035
797.3993,795.78754,799.81683,785.31134
782.49084,791.75824,796.99634,782.0879
774.83514,792.1612,792.5641,782.49084
785.7143,798.60803,790.9524,786.1172
793.36993,798.60803,793.7729,783.69965
780.4762,785.7143,788.93774,774.43225
771.2088,772.01465,786.1172,773.22345
769.19415,786.52014,797.8022,779.67035
769.59705,775.64105,788.93774,775.64105
777.6557,785.31134,784.90845,778.0586
774.0293,784.10254,783.2967,774.43225
774.43225,778.0586,786.9231,760.7326
779.2674,773.6264,783.2967,765.16486
780.07324,780.4762,781.685,777.25275
780.07324,784.10254,774.83514,765.56775
782.49084,785.7143,785.7143,775.2381
780.87915,785.7143,790.54944,783.2967
778.46155,783.2967,776.4469,772.4176
777.6557,782.8938,783.2967,777.25275
774.43225,776.8498,782.8938,775.2381
773.6264,772.4176,785.7143,771.2088
786.52014,779.2674,780.4762,774.43225
778.46155,782.0879,779.2674,767.5824
769.59705,780.4762,787.326,768.3883
776.04395,784.5055,796.1905,783.2967
782.49084,789.7436,802.23444,779.67035
784.10254,780.4762,788.1319,777.25275
770.80585,776.4469,793.7729,777.25275
780.4762,782.49084,801.02563,781.685
796.5934,795.78754,800.6227,788.93774
786.9231,793.36993,797.3993,789.7436
788.5348,785.7143,795.78754,773.22345
768.3883,786.52014,792.96704,784.5055
770.0,785.7143,789.34064,770.0
796.5934,790.14655,797.8022,780.87915
783.69965,794.17584,807.0696,788.93774
767.5824,792.1612,801.8315,778.46155
781.685,783.69965,788.5348,774.83514
778.46155,786.52014,794.9817,787.326
788.93774,794.17584,797.3993,786.9231
794.17584,796.5934,793.36993,779.2674
786.9231,795.78754,792.1612,776.04395
782.0879,786.9231,785.7143,772.4176
783.69965,780.4762,782.49084,776.8498
794.57874,774.0293,780.87915,766.77655
789.34064,776.04395,780.07324,764.7619
777.25275,782.8938,781.685,772.8205
780.4762,785.31134,783.69965,773.22345
780.4762,777.6557,785.31134,775.64105
788.93774,785.7143,786.9231,778.46155
792.5641,803.44324,806.6667,778.86444
795.38464,800.2198,804.65204,773.22345
796.5934,792.96704,802.6374,773.6264
791.75824,799.011,804.2491,784.90845
786.9231,803.0403,811.50183,784.10254
789.34064,796.99634,815.5311,779.2674
790.54944,792.5641,807.47253,771.2088
783.2967,787.72894,804.65204,773.22345
786.52014,786.9231,809.89014,783.2967
793.7729,793.36993,798.20514,781.28204
793.36993,791.75824,809.0842,788.93774
796.1905,801.8315,810.293,796.1905
795.78754,802.6374,809.89014,792.96704
791.3553,791.3553,802.23444,788.93774
795.78754,791.75824,801.4286,795.38464
800.6227,797.8022,805.05493,798.20514
792.96704,801.4286,805.05493,792.96704
797.3993,807.8755,806.6667,793.36993
803.44324,799.81683,798.20514,791.75824
795.38464,791.3553,790.14655,792.5641
789.34064,790.14655,792.96704,787.72894
781.28204,787.72894,793.7729,779.2674
788.93774,782.8938,789.34064,774.43225
790.14655,777.6557,780.87915,771.6117
788.5348,790.14655,794.57874,788.93774
797.8022,794.9817,795.38464,782.0879
792.96704,788.5348,789.7436,768.7912
787.72894,784.5055,786.52014,772.8205
797.3993,786.52014,788.93774,792.1612
786.9231,779.2674,780.4762,788.1319
775.2381,779.2674,776.04395,773.22345
786.1172,782.0879,781.685,770.40295
786.9231,777.25275,784.5055,771.6117
784.10254,775.2381,784.90845,783.69965
784.5055,780.87915,785.7143,779.67035
795.38464,777.25275,785.31134,785.31134
799.41394,779.67035,787.326,777.6557
801.4286,784.5055,787.72894,778.46155
794.57874,777.25275,779.2674,780.87915
786.52014,775.2381,763.95605,780.87915
783.69965,788.1319,763.1502,781.685
781.28204,788.5348,780.4762,778.86444
799.81683,782.49084,791.3553,776.8498
811.0989,783.69965,799.011,787.326
792.5641,777.6557,812.71063,790.9524
793.36993,782.0879,809.89014,780.87915
795.78754,779.67035,810.696,798.60803
792.5641,784.10254,805.8608,784.10254
797.8022,783.69965,794.9817,782.49084
791.75824,789.34064,784.90845,787.72894
800.6227,791.75824,784.10254,800.6227
811.50183,795.78754,787.72894,802.6374
808.2784,799.011,787.72894,800.2198
801.8315,788.5348,786.52014,795.78754
797.3993,784.10254,794.17584,803.8461
801.8315,789.34064,796.5934,812.71063
813.5165,788.5348,791.75824,802.23444
811.0989,788.93774,786.52014,797.3993
814.3223,794.9817,794.57874,809.0842
807.47253,794.57874,802.23444,815.5311
798.60803,794.17584,801.02563,810.696
805.4579,797.8022,803.0403,816.7399
816.7399,801.8315,802.23444,817.9487
818.7546,798.20514,796.1905,804.65204
793.7729,795.78754,796.5934,798.20514
788.5348,795.38464,795.38464,793.7729
788.93774,790.54944,796.99634,793.36993
790.14655,789.34064,802.23444,793.7729
791.75824,786.9231,799.011,784.90845
789.7436,784.5055,799.41394,782.0879
788.93774,785.7143,799.81683,788.1319
785.7143,785.31134,794.17584,785.7143
776.04395,782.0879,789.7436,767.5824
783.2967,781.685,786.9231,760.7326
779.2674,780.87915,792.1612,775.2381
769.19415,784.5055,794.57874,775.2381
776.4469,787.72894,793.7729,778.0586
784.10254,791.75824,794.57874,778.46155
771.6117,788.5348,791.3553,766.77655
761.9414,788.93774,791.3553,768.7912
764.7619,792.96704,789.34064,759.92676
778.46155,795.38464,792.96704,752.674
779.2674,782.49084,791.3553,782.49084
783.69965,799.011,798.20514,765.9707
786.52014,799.011,796.5934,767.98535
780.87915,795.78754,793.7729,768.3883
778.46155,793.7729,798.60803,778.86444
780.4762,792.5641,806.26373,773.6264
789.7436,795.38464,807.8755,769.19415
782.8938,788.1319,798.20514,777.6557
776.4469,790.14655,801.02563,781.685
783.2967,799.011,805.8608,792.96704
796.1905,797.8022,804.65204,775.64105
796.5934,790.14655,796.5934,772.01465
793.36993,790.14655,804.2491,777.25275
786.9231,784.90845,785.31134,775.64105
787.72894,793.36993,798.60803,779.67035
784.10254,799.41394,803.8461,772.4176
787.326,783.69965,786.9231,772.4176
781.28204,796.99634,801.02563,765.56775
782.49084,791.3553,789.34064,771.2088
800.6227,797.8022,781.685,786.9231
793.7729,794.17584,790.14655,784.10254
779.67035,780.4762,796.99634,759.5238
786.52014,784.5055,795.78754,763.1502
780.87915,782.8938,797.3993,769.59705
779.2674,785.31134,803.0403,767.1795
786.9231,792.5641,811.0989,780.87915
796.99634,789.34064,812.71063,783.2967
796.5934,788.5348,804.2491,776.04395
779.67035,787.326,802.23444,772.8205
778.46155,788.1319,803.44324,778.86444
788.93774,793.7729,807.47253,792.5641
784.10254,794.17584,815.9341,796.99634
785.31134,784.5055,801.8315,783.2967
783.2967,780.07324,789.34064,777.25275
779.67035,780.4762,795.78754,780.07324
779.2674,782.0879,801.8315,783.69965
781.28204,785.7143,799.011,783.69965
787.72894,788.1319,791.75824,780.4762
789.34064,788.5348,787.72894,768.3883
773.6264,786.52014,792.96704,764.35895
778.0586,788.1319,803.8461,773.22345
786.9231,784.10254,805.05493,773.22345
775.64105,782.8938,803.44324,766.77655
777.6557,781.28204,799.81683,766.77655
780.87915,767.1795,791.3553,758.315
770.0,772.4176,790.54944,766.77655
772.8205,792.1612,792.96704,778.86444
783.2967,790.54944,793.36993,773.6264
778.86444,775.2381,791.75824,768.3883
775.64105,779.67035,791.3553,776.4469
762.3443,784.5055,787.326,764.7619
765.56775,782.8938,781.28204,764.35895
789.7436,782.49084,786.1172,768.7912
779.2674,778.0586,793.36993,768.7912
762.3443,773.22345,790.9524,774.83514
765.16486,763.5531,786.1172,782.0879
776.8498,767.1795,787.72894,799.41394
784.5055,778.46155,792.1612,791.75824
775.2381,772.01465,787.326,772.4176
770.80585,763.95605,784.5055,772.01465
759.12085,766.77655,784.90845,774.43225
765.16486,773.22345,787.326,781.28204
779.67035,773.22345,788.93774,778.46155
769.19415,767.98535,777.25275,754.2857
753.0769,765.56775,775.2381,758.71796
752.674,763.5531,772.4176,755.89746
758.315,768.3883,770.80585,752.27106
761.13556,766.77655,775.2381,747.8388
750.65936,760.7326,774.43225,740.58606
777.25275,768.3883,782.8938,759.12085
740.989,752.674,762.3443,734.5421
757.50916,765.56775,766.77655,749.0476
776.04395,776.4469,773.22345,761.9414
773.22345,766.3736,767.5824,753.47986
769.19415,773.6264,785.31134,768.7912
787.72894,782.0879,797.8022,786.1172
794.9817,788.1319,796.5934,782.8938
782.0879,791.3553,779.67035,772.4176
774.83514,789.34064,777.6557,780.87915
777.6557,780.4762,789.7436,777.25275
781.685,780.4762,793.7729,767.5824
763.5531,767.98535,772.4176,755.09155
782.49084,782.0879,788.93774,766.3736
781.685,786.52014,788.93774,770.40295
786.9231,786.52014,784.90845,778.86444
795.38464,782.0879,780.07324,772.8205
787.72894,776.04395,778.0586,763.5531
768.7912,769.59705,774.0293,763.95605
772.8205,770.40295,770.0,758.71796
769.19415,768.7912,772.4176,748.24176
763.95605,767.1795,778.86444,752.674
773.6264,775.2381,782.8938,766.77655
776.04395,775.64105,776.8498,765.16486
777.25275,772.4176,768.7912,756.30035
779.67035,775.2381,766.3736,754.68866
790.14655,780.4762,773.6264,763.1502
793.36993,788.93774,790.54944,778.0586
788.93774,797.3993,795.38464,795.38464
791.3553,800.2198,803.0403,792.1612
806.6667,799.81683,809.4872,778.86444
798.20514,796.5934,803.44324,774.0293
788.1319,793.7729,801.4286,788.5348
782.0879,790.9524,798.20514,778.86444
781.685,778.86444,788.5348,757.50916
793.7729,794.9817,799.81683,793.7729
790.54944,767.1795,776.04395,756.30035
783.69965,765.56775,777.25275,777.6557
782.8938,774.43225,775.64105,776.8498
788.5348,778.46155,776.8498,769.19415
790.14655,775.64105,774.83514,772.8205
788.93774,773.6264,776.4469,774.0293
779.2674,778.46155,787.72894,782.0879
782.49084,780.4762,795.38464,784.5055
785.31134,784.10254,796.1905,770.80585
777.6557,790.14655,790.14655,767.98535
765.9707,782.8938,785.31134,754.68866
769.59705,782.49084,790.9524,756.30035
773.22345,786.9231,796.1905,772.4176
796.1905,796.99634,803.0403,784.10254
790.54944,793.36993,797.3993,790.9524
782.49084,791.75824,800.2198,776.04395
786.9231,791.75824,795.38464,785.7143
784.10254,794.17584,803.8461,786.9231
793.36993,797.3993,805.05493,795.78754
799.41394,796.99634,791.75824,783.69965
787.326,788.1319,784.5055,775.64105
773.6264,781.685,787.326,776.4469
776.04395,777.6557,789.34064,786.9231
784.10254,779.67035,793.7729,790.9524
792.96704,787.72894,796.5934,779.67035
797.8022,784.10254,779.2674,780.87915
790.14655,786.9231,777.25275,788.1319
790.14655,788.1319,801.02563,786.9231
791.75824,787.72894,813.5165,785.7143
784.90845,792.96704,811.50183,778.0586
774.43225,782.8938,803.0403,770.80585
780.4762,776.4469,797.3993,785.7143
788.1319,787.72894,798.20514,799.011
788.1319,794.9817,806.26373,790.14655
788.5348,789.34064,806.6667,786.9231
778.0586,776.4469,784.90845,777.6557
765.16486,776.4469,783.2967,757.1062
763.5531,777.6557,789.7436,766.3736
775.64105,778.86444,792.5641,783.69965
790.54944,781.685,786.9231,775.2381
789.7436,779.67035,775.64105,766.3736
784.10254,776.8498,785.31134,772.8205
784.90845,774.43225,791.75824,776.8498
782.0879,779.2674,796.1905,784.90845
780.4762,781.28204,792.96704,779.67035
773.6264,782.49084,786.9231,774.0293
762.74725,775.64105,778.0586,775.64105
767.1795,769.19415,776.8498,776.8498
780.87915,774.83514,786.1172,782.49084
788.5348,779.67035,788.1319,780.87915
776.8498,780.07324,787.72894,769.19415
767.1795,772.01465,786.9231,753.47986
770.80585,773.22345,792.1612,761.9414
778.0586,780.87915,793.36993,771.2088
771.6117,782.49084,789.7436,760.32965
762.3443,776.4469,785.7143,754.2857
771.6117,776.4469,786.52014,763.95605
763.95605,773.22345,788.5348,772.8205
753.0769,770.80585,788.1319,770.0
763.1502,765.9707,784.5055,753.47986
761.53845,771.2088,783.69965,749.0476
759.5238,769.19415,778.86444,745.0183
769.19415,771.6117,782.8938,749.45056
774.0293,782.8938,788.93774,764.35895
779.67035,779.67035,783.69965,768.7912
771.6117,777.25275,783.2967,761.9414
759.92676,767.5824,781.685,753.8828
767.98535,767.98535,784.90845,765.56775
774.43225,776.4469,786.9231,784.90845
788.1319,788.93774,784.90845,792.5641
801.8315,783.2967,782.8938,780.4762
801.4286,772.4176,786.1172,772.01465
795.78754,771.2088,788.5348,783.69965
780.87915,771.6117,784.90845,780.07324
777.6557,782.49084,782.8938,778.0586
789.7436,789.7436,790.14655,789.7436
781.685,782.0879,789.7436,780.87915
767.5824,774.83514,788.5348,766.77655
780.4762,784.5055,791.75824,770.0
785.7143,792.5641,794.17584,784.90845
785.31134,796.1905,794.57874,788.93774
786.1172,793.7729,796.99634,783.69965
774.0293,778.46155,791.3553,765.9707
796.99634,795.38464,808.68134,790.54944
798.60803,798.20514,814.3223,793.36993
798.60803,797.3993,813.5165,788.1319
786.1172,782.0879,795.38464,770.40295
776.4469,772.01465,785.7143,767.1795
783.2967,777.6557,802.6374,778.0586
788.1319,790.14655,800.2198,781.28204
795.78754,785.31134,798.60803,776.4469
804.2491,788.1319,787.72894,783.2967
803.0403,794.17584,793.7729,804.65204
784.5055,784.5055,803.0403,781.685
805.05493,794.17584,808.2784,809.89014
805.05493,790.54944,805.8608,803.8461
802.23444,783.2967,799.81683,794.57874
804.65204,784.90845,797.8022,793.36993
806.6667,787.72894,800.6227,795.78754
803.0403,794.57874,807.47253,797.3993
812.3077,801.8315,809.89014,807.47253
789.34064,780.87915,791.3553,772.4176
781.28204,776.04395,785.7143,767.98535
775.64105,772.8205,780.4762,780.4762
780.87915,782.0879,784.5055,781.685
786.9231,788.1319,788.5348,773.6264
783.69965,774.43225,778.0586,770.40295
809.0842,792.5641,801.02563,800.6227
783.69965,765.9707,770.80585,776.8498
783.69965,774.0293,782.0879,772.8205
784.90845,783.69965,795.78754,778.0586
786.52014,789.7436,798.20514,776.04395
787.72894,785.7143,793.7729,765.16486
784.5055,780.87915,789.34064,769.19415
789.34064,784.5055,790.54944,777.25275
794.57874,782.49084,796.5934,778.0586
787.326,786.9231,796.99634,780.87915
780.87915,790.9524,793.7729,779.67035
786.1172,785.7143,796.99634,785.7143
796.99634,784.10254,792.5641,792.1612
792.96704,786.52014,795.38464,785.31134
791.75824,787.72894,794.9817,781.685
793.7729,789.7436,779.67035,774.0293
795.38464,790.9524,782.8938,777.6557
794.57874,789.34064,796.1905,789.34064
790.9524,790.54944,792.5641,774.83514
792.5641,794.57874,798.20514,768.3883
792.1612,789.7436,796.5934,789.7436
795.38464,796.5934,795.78754,778.86444
791.3553,792.5641,795.78754,792.96704
780.87915,786.1172,790.9524,772.4176
781.685,785.31134,790.54944,763.1502
782.8938,779.2674,790.9524,770.40295
793.7729,798.60803,794.57874,793.7729
777.25275,777.25275,788.93774,778.86444
778.46155,779.67035,784.10254,773.6264
781.685,787.326,782.8938,779.67035
762.3443,764.35895,767.5824,740.989
764.7619,764.35895,765.56775,756.7033
772.01465,776.8498,777.6557,759.5238
772.8205,765.9707,781.685,767.98535
774.43225,770.0,790.14655,768.3883
780.87915,766.3736,783.2967,773.22345
789.34064,765.9707,782.49084,774.0293
782.8938,772.4176,783.69965,773.6264
780.87915,776.4469,782.49084,786.52014
785.31134,772.01465,779.67035,783.2967
772.01465,767.5824,777.25275,769.19415
765.56775,765.56775,771.2088,761.13556
774.0293,774.0293,783.2967,780.07324
774.0293,777.25275,785.31134,771.2088
772.8205,774.83514,784.10254,767.98535
768.3883,772.4176,775.64105,770.40295
771.6117,772.4176,769.59705,768.7912
779.2674,771.2088,775.64105,770.80585
776.04395,772.8205,788.5348,769.59705
772.01465,768.3883,790.14655,760.32965
784.10254,767.98535,775.64105,760.32965
786.52014,770.80585,772.4176,773.6264
776.8498,770.0,776.4469,775.64105
771.2088,767.98535,782.49084,781.28204
773.22345,774.43225,788.93774,771.2088
776.8498,781.28204,785.7143,767.1795
783.2967,779.2674,780.4762,778.46155
793.36993,781.28204,785.7143,781.28204
785.31134,788.93774,790.9524,784.10254
803.8461,782.0879,785.31134,783.2967
793.36993,778.0586,779.2674,778.86444
791.3553,787.72894,790.14655,794.9817
781.28204,775.64105,776.4469,784.5055
794.17584,780.07324,782.0879,789.7436
803.0403,786.52014,790.14655,796.99634
805.05493,790.9524,792.1612,797.3993
798.60803,786.52014,789.7436,788.5348
784.5055,776.4469,787.326,785.31134
789.7436,777.25275,790.14655,794.17584
780.87915,776.4469,790.9524,795.38464
786.52014,777.6557,779.67035,777.25275
795.38464,784.10254,766.77655,770.40295
782.8938,779.67035,771.6117,774.0293
772.01465,771.6117,787.326,776.8498
779.67035,781.28204,797.8022,776.04395
795.78754,788.5348,795.78754,781.685
796.99634,780.87915,783.2967,775.64105
792.96704,779.2674,779.67035,769.59705
791.75824,779.67035,781.685,785.7143
792.1612,780.87915,786.9231,796.1905
786.52014,785.7143,793.36993,784.90845
771.6117,778.0586,784.90845,771.6117
765.9707,771.6117,777.6557,778.0586
779.2674,776.04395,780.87915,786.1172
799.41394,780.4762,786.52014,796.1905
803.8461,785.7143,787.326,799.011
798.20514,786.52014,785.7143,793.7729
800.2198,786.52014,790.14655,793.36993
801.8315,791.3553,796.1905,789.7436
801.02563,801.02563,801.8315,800.6227
809.89014,810.293,808.68134,812.3077
817.1429,817.9487,813.91943,802.6374
806.26373,810.696,809.0842,787.72894
798.60803,803.8461,808.2784,793.36993
800.2198,807.0696,813.5165,799.011
805.4579,811.9048,821.1722,800.2198
798.20514,807.0696,815.9341,790.54944
789.34064,796.99634,802.23444,776.4469
800.2198,795.38464,803.0403,789.34064
802.6374,799.41394,806.26373,801.02563
805.05493,803.8461,807.47253,801.02563
817.1429,804.2491,807.0696,795.78754
799.011,798.60803,805.4579,784.5055
785.7143,798.60803,811.50183,791.3553
802.23444,803.8461,822.381,804.65204
812.71063,804.65204,822.381,809.89014
823.1868,816.7399,823.1868,814.3223
799.81683,801.02563,811.9048,791.3553
800.6227,802.6374,814.3223,803.0403
788.93774,799.41394,803.44324,798.20514
813.5165,812.71063,815.9341,796.99634
802.6374,797.3993,803.44324,797.8022
823.9927,804.2491,805.8608,803.8461
786.1172,791.75824,794.9817,780.87915
764.7619,781.685,793.36993,761.53845
778.0586,786.1172,793.7729,767.98535
774.83514,790.14655,798.60803,772.8205
774.0293,789.7436,798.60803,763.1502
775.2381,786.1172,792.96704,761.13556
782.49084,790.14655,809.0842,776.04395
793.7729,799.011,812.71063,779.2674
789.34064,808.68134,813.1135,777.6557
780.87915,802.6374,799.81683,776.04395
787.326,805.05493,803.44324,779.67035
782.8938,792.96704,804.2491,774.83514
783.2967,807.0696,810.696,778.46155
792.96704,804.65204,808.68134,783.2967
798.20514,805.4579,807.0696,775.2381
783.2967,793.36993,806.6667,760.7326
780.87915,786.52014,803.8461,770.40295
791.3553,796.5934,807.8755,779.67035
790.14655,797.3993,805.05493,783.2967
786.9231,793.36993,798.60803,778.0586
783.69965,789.7436,793.36993,772.01465
779.67035,784.5055,791.75824,773.6264
788.5348,787.72894,794.17584,779.2674
797.3993,793.7729,799.011,786.52014
790.9524,797.8022,802.23444,782.0879
785.31134,792.5641,794.57874,774.0293
784.90845,785.7143,792.96704,777.25275
785.7143,791.3553,803.8461,785.7143
786.9231,796.99634,806.6667,780.07324
787.326,785.31134,797.8022,767.5824
787.326,782.0879,799.41394,774.83514
789.34064,785.7143,802.23444,787.326
794.9817,794.9817,799.81683,788.5348
788.5348,792.5641,796.5934,785.7143
788.93774,792.1612,805.4579,780.87915
780.87915,790.14655,799.81683,769.59705
790.14655,794.57874,808.68134,780.87915
792.1612,802.23444,807.8755,779.67035
777.6557,799.41394,803.0403,793.36993
775.2381,786.1172,794.57874,779.2674
782.49084,778.46155,788.93774,775.64105
796.5934,798.20514,809.89014,780.07324
790.9524,781.28204,798.60803,794.17584
799.41394,787.72894,796.99634,794.9817
786.52014,778.0586,792.1612,787.326
789.34064,780.87915,788.93774,781.685
795.38464,789.34064,803.8461,799.011
786.9231,778.46155,795.78754,785.31134
798.20514,797.3993,813.1135,797.3993
804.65204,792.96704,811.50183,787.72894
774.83514,785.31134,806.6667,780.07324
800.6227,788.1319,807.8755,805.05493
789.34064,782.8938,805.4579,794.17584
799.011,793.36993,805.8608,785.7143
789.34064,792.5641,802.6374,783.2967
784.90845,788.1319,798.20514,778.0586
795.78754,788.93774,807.47253,788.93774
774.83514,790.9524,797.8022,774.0293
772.8205,785.7143,799.011,774.83514
811.9048,796.1905,817.9487,791.75824
783.2967,783.69965,805.05493,777.6557
778.46155,788.1319,805.8608,780.07324
776.4469,786.9231,803.8461,774.83514
793.7729,790.54944,805.05493,782.0879
790.14655,787.326,803.0403,790.14655
784.10254,786.1172,802.6374,775.2381
784.90845,791.3553,804.65204,774.43225
787.326,790.14655,800.2198,784.5055
789.34064,792.5641,797.3993,787.326
790.14655,794.17584,799.81683,790.14655
799.011,795.78754,801.8315,788.5348
793.7729,796.99634,802.23444,793.7729
791.3553,790.54944,797.8022,797.3993
798.60803,788.1319,794.57874,800.6227
805.8608,794.57874,800.6227,803.8461
792.1612,798.60803,801.8315,788.5348
794.17584,793.7729,803.44324,783.2967
804.2491,795.38464,801.02563,799.81683
794.57874,801.8315,794.9817,801.4286
794.9817,800.2198,800.6227,797.8022
785.7143,795.78754,802.6374,782.49084
783.2967,788.5348,797.3993,775.64105
796.5934,787.72894,800.6227,788.5348
794.17584,793.7729,803.8461,792.5641
785.7143,797.8022,805.05493,798.20514
789.7436,799.81683,809.89014,796.99634
800.2198,796.99634,809.89014,783.2967
799.81683,799.81683,811.9048,783.2967
801.8315,803.44324,811.9048,794.57874
808.2784,801.4286,808.68134,793.7729
801.8315,797.3993,804.65204,790.54944
790.9524,793.36993,799.41394,790.9524
792.96704,794.57874,802.6374,786.52014
796.5934,795.78754,807.47253,798.20514
803.44324,801.02563,811.50183,808.68134
809.0842,807.47253,811.0989,802.6374
807.0696,801.8315,801.4286,796.1905
797.3993,794.9817,792.96704,783.2967
790.9524,791.3553,786.9231,781.685
796.1905,789.34064,783.2967,785.31134
785.31134,788.1319,779.67035,779.2674
773.22345,788.5348,785.31134,775.2381
767.98535,777.25275,785.31134,769.19415
767.98535,766.3736,780.4762,767.1795
771.6117,770.0,780.07324,768.3883
757.9121,774.83514,778.86444,757.9121
754.68866,769.19415,775.64105,744.61536
756.7033,763.95605,767.1795,739.3773
759.5238,770.80585,767.5824,759.5238
764.7619,773.6264,778.46155,769.19415
773.22345,776.04395,787.326,769.19415
776.8498,779.2674,784.5055,766.3736
760.7326,772.8205,776.04395,750.65936
756.7033,773.22345,774.43225,752.674
765.56775,772.01465,770.40295,767.98535
776.8498,771.6117,776.04395,782.8938
786.52014,776.4469,781.28204,771.2088
785.7143,777.25275,778.46155,761.9414
787.326,776.04395,777.25275,768.7912
790.54944,783.2967,777.25275,774.83514
801.02563,791.75824,785.7143,782.49084
801.4286,792.96704,797.3993,789.7436
780.4762,784.90845,789.34064,777.6557
780.07324,781.685,784.5055,768.7912
775.64105,782.49084,787.72894,770.40295
781.28204,794.9817,789.34064,780.07324
797.8022,799.011,789.34064,796.5934
766.3736,776.04395,783.69965,767.1795
772.4176,780.07324,788.5348,777.6557
777.6557,786.1172,791.3553,780.4762
780.87915,783.69965,785.31134,780.87915
776.8498,786.52014,791.75824,770.40295
774.0293,788.1319,794.57874,768.3883
769.59705,782.0879,789.7436,760.7326
768.3883,782.8938,789.34064,766.3736
786.1172,792.96704,791.3553,783.2967
783.2967,790.54944,786.1172,776.04395
777.6557,784.90845,784.5055,767.98535
782.49084,780.87915,782.0879,771.6117
786.9231,779.67035,785.31134,785.7143
785.7143,772.8205,784.5055,776.8498
791.3553,772.4176,786.1172,766.3736
793.7729,782.49084,792.96704,780.4762
786.52014,783.69965,793.7729,784.5055
799.41394,779.2674,799.41394,786.1172
807.47253,784.5055,799.011,786.1172
794.17584,790.9524,797.3993,787.72894
805.4579,797.8022,802.6374,803.0403
797.3993,797.3993,804.65204,794.17584
784.10254,792.1612,804.65204,792.5641
801.4286,799.41394,804.65204,800.6227
791.3553,788.93774,797.3993,785.7143
799.011,795.78754,804.2491,801.02563
786.1172,779.67035,786.52014,773.6264
797.3993,784.10254,800.2198,792.1612
790.14655,782.49084,793.36993,779.67035
797.3993,792.96704,796.5934,796.5934
778.46155,790.54944,790.14655,771.2088
784.90845,790.54944,791.3553,775.2381
788.1319,790.9524,794.17584,776.8498
778.86444,798.60803,806.26373,790.9524
790.54944,796.1905,804.65204,790.54944
788.93774,781.28204,790.9524,773.22345
783.69965,782.49084,786.1172,774.43225
790.54944,789.34064,789.7436,789.34064
794.57874,789.34064,796.1905,787.72894
795.38464,790.14655,799.81683,778.0586
786.52014,794.17584,791.75824,780.87915
797.3993,796.99634,796.1905,783.69965
778.0586,789.7436,788.1319,778.86444
792.5641,794.17584,801.8315,786.1172
799.81683,792.96704,806.26373,782.49084
784.10254,791.3553,782.49084,778.46155
788.93774,794.9817,809.4872,782.49084
774.0293,788.93774,799.81683,777.6557
781.28204,781.685,789.34064,774.43225
800.6227,784.90845,788.1319,788.1319
785.31134,778.0586,788.5348,773.22345
799.41394,785.7143,787.326,788.5348
787.326,775.2381,790.9524,776.8498
791.75824,782.0879,792.96704,786.9231
789.34064,790.9524,797.3993,782.49084
786.9231,790.9524,795.78754,769.19415
780.4762,783.69965,791.3553,765.9707
775.2381,778.46155,790.9524,773.22345
779.67035,780.07324,790.9524,775.64105
784.5055,781.685,790.14655,774.43225
779.67035,778.86444,789.34064,770.0
774.43225,777.25275,787.72894,769.19415
776.04395,776.4469,788.5348,777.6557
778.46155,773.22345,789.34064,788.5348
787.72894,774.43225,792.5641,799.011
788.1319,781.685,796.99634,785.7143
788.1319,785.31134,792.96704,771.2088
784.5055,782.49084,792.96704,784.5055
777.25275,779.2674,795.38464,784.10254
778.86444,789.7436,799.011,778.46155
779.2674,788.93774,785.7143,767.5824
767.1795,776.4469,776.4469,762.74725
765.9707,778.0586,787.72894,761.9414
781.28204,783.2967,793.36993,762.74725
763.95605,777.6557,793.36993,757.9121
774.0293,777.25275,794.17584,766.77655
776.04395,785.31134,790.14655,772.01465
760.7326,784.90845,778.0586,757.1062
763.5531,786.1172,783.2967,752.674
764.7619,786.1172,792.96704,767.5824
772.8205,785.7143,796.5934,778.46155
792.96704,798.20514,799.011,776.8498
791.75824,798.60803,793.7729,768.7912
782.0879,786.1172,788.1319,767.98535
772.4176,783.2967,787.72894,768.7912
776.8498,785.31134,793.7729,765.56775
794.9817,793.7729,795.38464,779.67035
770.80585,778.0586,787.72894,770.0
786.52014,790.14655,789.34064,779.2674
771.2088,783.69965,793.7729,771.6117
775.2381,791.3553,797.3993,769.59705
770.80585,788.5348,795.38464,765.9707
782.0879,787.326,795.38464,772.01465
786.52014,784.5055,796.99634,775.2381
777.25275,784.10254,788.93774,765.9707
787.72894,789.7436,795.78754,772.8205
786.52014,800.6227,804.65204,784.10254
784.10254,794.57874,791.75824,767.1795
774.0293,784.10254,791.75824,767.1795
781.685,784.90845,788.93774,763.95605
791.75824,790.14655,801.8315,779.67035
803.8461,796.1905,802.6374,784.90845
790.9524,785.7143,801.02563,771.2088
778.0586,784.90845,800.2198,773.22345
788.93774,795.78754,801.4286,780.87915
777.25275,793.36993,799.011,770.80585
764.35895,788.1319,796.5934,777.25275
764.35895,784.90845,790.14655,766.77655
759.12085,778.86444,785.31134,751.06226
765.9707,777.6557,784.10254,772.8205
769.59705,770.0,778.86444,780.4762
770.80585,770.40295,782.8938,769.19415
775.64105,779.2674,789.7436,762.74725
774.0293,779.2674,786.1172,759.92676
772.4176,782.0879,783.69965,774.83514
774.83514,785.7143,791.3553,793.7729
790.9524,793.36993,805.4579,794.57874
805.8608,803.0403,805.05493,793.36993
790.14655,803.44324,797.8022,788.1319
787.326,799.011,796.1905,784.10254
802.23444,801.02563,799.011,792.1612
796.5934,802.23444,801.4286,792.5641
791.75824,794.57874,800.6227,787.326
785.31134,785.31134,798.60803,772.8205
778.46155,783.69965,796.99634,762.3443
772.4176,789.34064,794.9817,765.56775
777.6557,788.1319,792.1612,770.40295
788.1319,788.93774,789.7436,774.83514
778.0586,784.10254,783.69965,765.16486
770.40295,782.8938,780.87915,761.53845
772.01465,786.1172,781.28204,765.9707
780.07324,789.7436,789.7436,773.6264
776.8498,778.0586,780.4762,760.7326
786.9231,791.3553,791.3553,771.6117
763.1502,770.80585,784.10254,758.71796
770.0,774.43225,789.7436,771.2088
777.6557,779.2674,788.5348,776.4469
782.49084,782.8938,788.93774,763.95605
777.25275,777.6557,786.52014,763.1502
765.16486,775.2381,785.7143,772.4176
775.2381,774.83514,793.7729,778.46155
786.9231,779.67035,796.5934,785.7143
799.41394,792.1612,797.3993,795.78754
792.1612,783.69965,792.1612,784.5055
783.2967,771.6117,782.8938,773.22345
798.60803,781.28204,790.14655,788.1319
786.52014,789.34064,791.75824,785.31134
773.6264,786.52014,792.96704,770.80585
784.90845,791.75824,794.57874,778.46155
786.1172,787.72894,779.2674,778.86444
788.1319,788.93774,780.87915,774.43225
791.75824,793.36993,792.5641,785.7143
788.5348,790.54944,800.2198,782.49084
790.9524,790.54944,802.6374,769.19415
792.5641,788.1319,799.81683,760.32965
799.41394,790.54944,801.02563,791.75824
787.326,785.31134,798.20514,766.3736
809.4872,803.8461,803.44324,804.2491
806.6667,804.2491,803.8461,786.1172
798.20514,796.99634,803.8461,782.0879
801.02563,793.7729,804.2491,793.36993
807.8755,796.5934,804.65204,800.6227
799.41394,796.1905,799.41394,780.4762
798.20514,792.96704,795.78754,789.7436
796.99634,793.36993,795.78754,791.3553
799.41394,795.78754,796.5934,794.9817
798.20514,793.7729,794.9817,800.2198
791.75824,785.7143,794.57874,795.78754
785.7143,785.7143,797.3993,796.5934
804.2491,799.011,803.8461,792.1612
780.4762,786.52014,794.57874,783.69965
789.34064,786.9231,792.5641,795.78754
776.4469,781.685,790.54944,778.86444
798.60803,796.1905,799.011,786.52014
784.5055,790.9524,794.17584,770.80585
779.2674,788.1319,789.7436,777.25275
787.326,788.5348,794.17584,771.2088
779.67035,788.5348,791.75824,776.04395
791.75824,790.9524,798.20514,767.98535
783.2967,780.87915,784.90845,759.92676
781.685,777.25275,775.2381,765.56775
781.685,779.2674,778.0586,769.19415
783.69965,783.2967,782.49084,760.7326
781.685,779.67035,781.685,771.6117
780.87915,783.69965,781.685,758.71796
773.22345,775.2381,774.43225,762.3443
768.7912,774.0293,775.64105,766.77655
776.8498,778.46155,788.93774,775.64105
782.8938,774.83514,789.34064,775.2381
780.87915,772.01465,780.07324,769.59705
765.56775,770.80585,774.83514,763.1502
767.1795,768.7912,776.4469,767.98535
782.0879,773.22345,779.2674,776.4469
778.86444,776.8498,780.4762,778.0586
789.7436,778.46155,778.86444,782.0879
784.10254,776.04395,774.43225,776.8498
761.53845,768.3883,772.4176,759.92676
762.3443,765.56775,778.0586,761.13556
774.83514,772.4176,782.49084,770.0
768.7912,778.46155,784.10254,759.92676
770.0,778.86444,784.10254,759.5238
780.4762,780.4762,782.0879,765.16486
768.7912,781.685,780.87915,757.9121
772.8205,780.07324,776.04395,756.30035
781.28204,780.4762,776.4469,767.98535
771.6117,776.4469,776.04395,763.1502
774.43225,784.10254,782.0879,773.22345
779.67035,789.7436,789.7436,765.9707
770.40295,775.64105,773.22345,759.92676
788.1319,787.72894,784.90845,761.13556
784.10254,778.46155,776.04395,759.5238
778.46155,778.46155,778.0586,764.7619
782.0879,781.685,778.46155,770.40295
774.83514,780.4762,775.2381,765.16486
789.34064,793.36993,781.28204,776.4469
799.41394,794.57874,784.10254,770.80585
776.4469,778.86444,780.87915,768.3883
769.59705,772.8205,785.7143,778.86444
779.67035,776.4469,791.75824,768.3883
778.46155,785.31134,788.1319,767.1795
778.46155,783.2967,788.93774,770.0
786.9231,776.4469,781.28204,776.8498
776.04395,771.6117,766.3736,772.8205
774.83514,778.46155,772.8205,776.04395
777.25275,787.72894,782.0879,774.83514
774.83514,780.07324,774.0293,747.03296
780.87915,781.685,783.69965,759.5238
776.4469,780.87915,798.20514,772.8205
768.3883,772.4176,799.81683,767.5824
763.95605,773.22345,798.60803,764.7619
766.77655,778.86444,796.1905,748.6447
772.4176,783.2967,801.02563,765.16486
772.01465,780.4762,797.3993,754.2857
764.35895,788.5348,803.44324,762.74725
772.01465,791.3553,799.41394,762.3443
778.46155,790.54944,792.5641,759.12085
770.40295,784.90845,784.5055,752.674
764.7619,784.5055,781.28204,766.3736
774.83514,787.72894,782.49084,782.8938
782.49084,794.57874,790.54944,780.07324
782.8938,786.1172,792.1612,761.53845
774.0293,767.1795,783.69965,763.5531
764.7619,769.59705,784.90845,775.2381
760.7326,771.6117,791.3553,777.25275
769.59705,775.64105,797.3993,780.07324
778.46155,780.4762,797.8022,773.6264
776.04395,778.46155,792.96704,766.3736
777.6557,779.2674,792.96704,776.4469
782.8938,787.326,791.3553,786.52014
792.1612,790.54944,791.3553,790.14655
786.1172,789.34064,798.20514,772.4176
774.43225,784.5055,788.5348,774.0293
769.59705,789.7436,788.93774,757.9121
788.1319,786.1172,799.81683,782.0879
787.326,793.36993,805.05493,777.6557
786.9231,792.96704,803.44324,780.87915
776.4469,782.49084,798.60803,759.12085
774.43225,780.07324,796.5934,767.1795
780.87915,789.7436,799.81683,782.49084
778.86444,785.31134,798.60803,786.9231
791.75824,792.5641,801.8315,780.07324
795.78754,791.3553,798.60803,780.87915
786.52014,794.57874,797.8022,784.10254
781.685,798.60803,804.2491,782.8938
794.57874,796.5934,807.0696,791.75824
805.8608,800.6227,807.0696,801.4286
792.5641,796.99634,804.65204,798.20514
788.1319,788.1319,802.23444,787.72894
794.57874,788.1319,798.60803,785.31134
799.41394,790.9524,798.60803,787.72894
800.2198,796.5934,805.05493,791.75824
798.60803,790.9524,806.6667,792.96704
797.8022,789.7436,803.8461,789.7436
801.02563,796.5934,805.4579,796.1905
790.54944,801.4286,804.2491,801.8315
780.4762,801.4286,797.8022,783.2967
801.02563,799.81683,786.52014,770.40295
797.8022,797.8022,788.5348,784.5055
776.04395,792.5641,801.02563,784.10254
778.86444,793.7729,807.0696,785.31134
788.1319,794.17584,800.6227,790.9524
784.10254,786.1172,794.9817,768.7912
776.4469,782.49084,797.8022,767.1795
778.0586,779.67035,794.57874,774.43225
775.2381,778.0586,792.1612,769.59705
766.3736,784.10254,792.5641,777.25275
776.4469,787.326,788.93774,775.2381
766.3736,770.80585,775.2381,758.71796
766.77655,770.80585,780.4762,770.40295
783.69965,782.0879,787.326,778.46155
777.6557,782.8938,787.326,773.6264
780.87915,780.4762,786.52014,772.8205
780.87915,786.9231,794.57874,780.87915
783.69965,779.2674,785.7143,774.0293
793.7729,786.1172,791.3553,790.54944
794.57874,795.78754,795.38464,786.52014
799.011,796.99634,803.44324,778.46155
794.17584,787.72894,800.6227,786.52014
786.52014,786.52014,801.8315,786.52014
784.5055,785.7143,796.1905,773.6264
788.93774,784.10254,790.9524,769.19415
772.8205,778.0586,790.54944,765.16486
760.32965,768.7912,782.49084,771.2088
767.5824,770.40295,780.07324,776.04395
793.7729,783.69965,794.9817,786.52014
767.1795,777.25275,790.54944,757.9121
764.7619,773.6264,791.75824,749.85345
768.3883,765.9707,784.90845,747.4359
772.01465,768.3883,786.1172,756.30035
773.6264,772.01465,791.3553,773.22345
776.04395,777.25275,793.7729,773.22345
777.25275,779.67035,787.72894,765.56775
776.8498,777.6557,784.90845,763.1502
776.8498,767.5824,785.7143,766.77655
775.64105,767.1795,786.52014,780.87915
782.49084,778.0586,791.75824,781.685
786.52014,785.31134,789.7436,778.0586
780.07324,784.90845,782.0879,770.80585
774.43225,772.01465,778.86444,763.95605
782.0879,776.04395,776.8498,782.8938
786.52014,781.685,784.10254,788.93774
788.5348,788.5348,790.14655,773.22345
775.64105,788.5348,788.93774,761.9414
773.6264,790.14655,796.5934,774.0293
778.86444,790.54944,799.81683,775.64105
789.34064,790.14655,801.02563,770.80585
784.5055,786.1172,796.99634,770.0
764.35895,776.04395,786.1172,759.92676
776.04395,774.0293,778.46155,757.1062
780.87915,777.6557,790.9524,760.7326
786.9231,784.5055,797.8022,773.6264
775.64105,783.69965,790.54944,773.6264
782.0879,786.9231,786.52014,774.0293
784.10254,783.2967,783.2967,766.77655
786.1172,780.07324,782.8938,766.3736
793.7729,792.5641,793.7729,778.46155
792.1612,789.7436,792.5641,782.0879
789.7436,787.72894,794.17584,778.0586
788.5348,790.54944,791.75824,776.04395
787.326,790.9524,794.9817,768.7912
794.57874,791.75824,793.7729,786.1172
789.34064,790.9524,793.36993,786.1172
806.26373,800.6227,784.10254,780.07324
801.4286,795.38464,770.80585,787.326
799.011,792.1612,790.14655,799.41394
803.8461,797.8022,816.337,801.02563
804.65204,797.8022,817.5458,790.14655
794.57874,790.14655,813.1135,778.0586
782.8938,790.54944,808.68134,775.64105
781.28204,796.99634,803.8461,785.31134
801.8315,805.05493,806.26373,799.011
811.50183,807.8755,807.8755,792.1612
795.38464,795.38464,796.1905,779.67035
793.7729,801.8315,806.26373,777.25275
782.8938,796.1905,802.23444,782.8938
786.9231,795.78754,795.38464,789.7436
788.5348,800.6227,797.8022,790.54944
787.72894,800.6227,801.02563,785.31134
787.326,802.6374,804.2491,782.0879
788.1319,799.41394,808.2784,787.72894
789.34064,788.1319,803.8461,792.96704
805.05493,803.8461,813.5165,797.8022
797.8022,794.9817,808.2784,801.4286
803.44324,802.23444,807.47253,787.72894
808.68134,800.6227,807.8755,796.1905
800.6227,796.5934,814.3223,794.17584
795.78754,801.4286,817.5458,800.6227
803.44324,807.0696,815.5311,807.47253
806.6667,801.02563,813.5165,803.8461
801.8315,794.57874,809.0842,796.5934
794.17584,791.3553,802.23444,792.5641
800.2198,794.57874,805.05493,795.78754
813.5165,801.8315,810.696,796.1905
819.15753,799.81683,807.8755,796.99634
813.1135,788.1319,803.8461,792.96704
802.23444,788.5348,804.2491,796.1905
803.8461,796.1905,805.05493,807.0696
807.8755,797.8022,807.0696,800.2198
796.5934,788.93774,801.02563,782.0879
784.5055,778.86444,790.9524,781.685
772.4176,777.25275,786.9231,784.10254
779.67035,786.9231,791.75824,792.1612
784.90845,783.69965,790.9524,773.22345
784.90845,779.2674,792.5641,762.74725
785.7143,785.7143,797.3993,772.4176
803.8461,795.38464,806.26373,782.49084
786.52014,788.93774,799.011,780.87915
785.7143,787.72894,798.60803,774.83514
787.326,786.52014,796.5934,782.8938
783.69965,787.326,796.5934,768.3883
789.7436,783.2967,789.34064,778.86444
785.7143,786.1172,794.9817,790.54944
781.685,785.31134,794.9817,778.0586
785.7143,787.72894,792.1612,773.6264
783.69965,780.07324,788.93774,767.5824
781.685,785.31134,784.10254,775.64105
803.44324,791.75824,788.93774,788.1319
791.3553,789.7436,786.9231,789.7436
794.9817,789.34064,781.685,778.0586
790.9524,792.1612,785.7143,779.2674
792.96704,793.36993,787.326,779.67035
786.1172,792.1612,797.3993,791.75824
783.69965,790.9524,802.23444,799.41394
788.5348,793.7729,792.96704,790.14655
785.31134,792.96704,792.5641,782.49084
778.86444,789.34064,797.3993,778.86444
786.9231,790.14655,803.44324,786.9231
785.7143,788.93774,807.0696,795.38464
785.31134,793.7729,801.8315,791.75824
785.31134,788.93774,795.38464,786.9231
785.31134,781.28204,797.3993,786.52014
790.54944,788.1319,799.41394,789.34064
788.5348,790.9524,799.41394,789.34064
797.3993,794.17584,802.23444,792.5641
801.4286,794.57874,800.6227,795.78754
803.8461,786.1172,794.57874,791.75824
792.96704,784.90845,795.78754,790.14655
780.87915,786.9231,797.8022,792.96704
795.38464,792.5641,797.8022,796.1905
795.78754,793.7729,795.78754,790.9524
790.54944,784.10254,792.1612,782.0879
790.54944,788.93774,789.34064,799.41394
804.65204,803.44324,805.4579,803.0403
813.1135,800.2198,803.8461,797.3993
789.7436,776.4469,787.326,782.0879
802.23444,794.57874,796.1905,794.57874
790.54944,794.17584,799.41394,794.17584
774.0293,791.75824,796.99634,783.2967
777.6557,792.96704,795.38464,782.0879
789.34064,795.78754,796.1905,784.10254
784.5055,795.78754,796.1905,781.28204
782.49084,790.9524,796.5934,786.1172
782.0879,775.2381,795.78754,788.5348
775.64105,780.07324,789.7436,767.98535
777.25275,781.28204,788.1319,764.35895
774.0293,779.67035,786.1172,758.315
767.1795,768.3883,791.3553,773.6264
782.8938,785.7143,792.5641,776.4469
782.0879,788.1319,794.17584,786.52014
785.31134,786.1172,783.69965,780.4762
780.87915,787.326,786.1172,778.46155
792.5641,786.52014,786.52014,788.1319
788.93774,782.8938,801.8315,790.54944
787.72894,785.7143,793.7729,794.57874
793.36993,784.5055,804.65204,786.1172
795.38464,786.52014,801.4286,793.36993
792.5641,784.90845,804.65204,797.3993
787.326,784.90845,808.2784,798.20514
788.5348,786.1172,800.2198,802.23444
787.326,783.2967,792.96704,786.1172
784.10254,782.8938,789.7436,772.8205
775.64105,780.87915,781.28204,772.8205
779.67035,782.8938,785.31134,773.22345
777.25275,785.7143,797.8022,786.1172
768.3883,782.49084,794.17584,776.4469
764.7619,776.8498,782.8938,759.12085
757.1062,767.5824,780.4762,763.95605
764.35895,777.6557,785.31134,777.6557
788.93774,788.5348,790.14655,781.685
792.1612,786.52014,796.99634,780.4762
779.2674,782.0879,792.1612,771.6117
777.25275,788.1319,786.9231,776.8498
798.20514,800.2198,803.0403,793.36993
791.75824,798.60803,797.8022,792.96704
796.99634,805.4579,804.65204,792.5641
806.26373,809.0842,802.6374,794.9817
811.0989,807.47253,796.5934,795.78754
813.1135,802.23444,798.60803,803.0403
808.68134,798.60803,808.2784,818.7546
812.71063,806.26373,818.3516,819.5604
828.022,815.12823,818.7546,811.0989
816.7399,801.8315,804.65204,805.4579
800.2198,789.34064,792.5641,804.65204
805.4579,797.8022,801.02563,805.05493
796.5934,790.14655,801.02563,784.10254
776.04395,780.87915,790.54944,777.6557
772.01465,782.49084,781.28204,775.2381
784.10254,791.3553,783.69965,787.326
779.2674,788.1319,789.7436,784.10254
783.2967,786.1172,797.3993,776.4469
789.7436,782.8938,792.96704,778.0586
774.43225,780.07324,790.14655,783.69965
773.22345,780.07324,791.3553,787.326
780.87915,781.685,788.93774,793.36993
808.68134,797.3993,804.2491,791.75824
774.83514,787.326,791.75824,782.8938
779.67035,784.10254,791.3553,776.04395
790.54944,788.1319,788.1319,794.9817
788.5348,786.9231,792.5641,798.60803
785.31134,776.8498,791.3553,787.72894
782.8938,782.8938,789.7436,788.1319
780.87915,785.31134,787.72894,785.7143
787.72894,783.2967,782.49084,780.4762
794.57874,781.685,788.1319,788.93774
794.57874,779.67035,791.3553,786.52014
796.99634,786.52014,793.36993,786.9231
797.8022,792.96704,796.5934,788.93774
786.52014,779.2674,790.9524,786.52014
798.60803,783.2967,798.20514,791.3553
798.60803,784.5055,797.3993,790.14655
784.90845,790.9524,797.8022,780.4762
765.56775,786.9231,788.5348,764.35895
767.98535,776.4469,784.90845,757.50916
776.04395,778.86444,792.96704,764.7619
780.07324,786.1172,796.99634,781.28204
784.90845,787.72894,790.9524,776.8498
786.1172,786.9231,788.93774,767.1795
781.28204,783.69965,792.96704,777.6557
789.34064,783.69965,790.14655,785.31134
763.95605,780.07324,795.38464,786.9231
790.9524,792.96704,794.57874,782.8938
790.14655,790.9524,790.9524,789.34064
792.96704,791.75824,793.36993,798.20514
772.4176,785.31134,795.78754,780.87915
794.17584,803.0403,805.05493,802.6374
802.6374,807.0696,809.4872,808.2784
801.4286,802.6374,805.05493,805.8608
780.4762,777.25275,798.20514,773.6264
784.5055,784.90845,798.60803,778.86444
789.34064,787.72894,801.8315,793.36993
797.8022,790.54944,798.20514,788.5348
786.52014,786.9231,787.326,775.2381
787.326,785.7143,787.72894,769.59705
792.5641,779.2674,789.7436,766.3736
795.78754,783.2967,790.9524,779.2674
800.6227,790.9524,795.78754,787.326
803.8461,792.1612,788.5348,779.67035
803.44324,789.34064,782.8938,774.83514
788.93774,781.685,790.9524,784.10254
779.67035,781.28204,789.34064,784.5055
805.4579,791.3553,799.41394,788.5348
796.5934,784.90845,792.5641,779.67035
788.1319,786.9231,790.9524,782.8938
781.28204,776.8498,786.9231,773.22345
785.31134,780.87915,787.72894,784.10254
804.2491,789.34064,788.1319,782.49084
796.1905,786.52014,789.34064,778.46155
789.34064,788.1319,794.17584,789.34064
789.7436,788.5348,796.99634,800.6227
804.65204,788.93774,790.54944,794.57874
786.52014,778.46155,794.57874,792.1612
780.87915,782.49084,788.93774,780.87915
782.8938,784.5055,784.90845,779.67035
788.1319,780.4762,783.69965,793.36993
792.1612,786.9231,789.7436,798.60803
792.1612,788.5348,790.9524,784.10254
782.49084,783.2967,786.1172,772.4176
796.99634,794.17584,789.7436,788.1319
772.4176,783.2967,788.93774,770.80585
796.99634,793.7729,790.14655,786.9231
773.22345,793.36993,793.7729,778.86444
783.2967,794.9817,792.1612,780.07324
784.10254,792.1612,793.7729,772.8205
788.5348,794.9817,793.7729,764.7619
784.5055,790.14655,789.7436,767.1795
778.46155,785.7143,792.1612,782.0879
790.14655,792.96704,796.5934,788.93774
793.36993,794.9817,799.41394,783.2967
786.1172,788.1319,794.57874,771.2088
778.0586,786.52014,790.54944,767.1795
777.25275,788.5348,789.34064,780.87915
781.685,791.3553,794.57874,786.1172
782.0879,792.96704,792.96704,771.2088
778.46155,786.1172,782.49084,760.32965
783.69965,779.67035,785.7143,777.6557
782.8938,780.87915,789.7436,790.14655
782.0879,783.69965,787.72894,782.8938
785.31134,786.1172,793.36993,780.87915
787.326,787.326,801.02563,788.5348
790.14655,786.9231,801.02563,789.7436
797.3993,795.38464,798.60803,788.5348
800.2198,800.2198,804.65204,793.36993
789.7436,794.9817,799.41394,783.2967
786.9231,797.8022,799.81683,777.6557
789.34064,798.20514,800.2198,782.0879
808.2784,804.65204,802.23444,793.7729
801.02563,801.8315,802.6374,793.36993
794.17584,803.0403,803.0403,788.5348
786.1172,790.54944,795.78754,780.4762
793.36993,788.93774,796.1905,786.52014
803.44324,805.4579,806.26373,797.3993
793.7729,794.17584,794.9817,783.69965
787.72894,794.9817,788.1319,775.2381
788.93774,793.7729,784.10254,774.83514
796.1905,792.96704,785.31134,784.10254
802.6374,787.326,793.7729,790.9524
798.20514,786.1172,794.57874,784.90845
790.9524,792.96704,788.5348,782.8938
788.93774,786.52014,780.07324,772.8205
788.1319,778.86444,778.86444,779.2674
788.5348,770.40295,781.28204,788.5348
777.25275,763.95605,781.28204,784.10254
770.80585,770.40295,786.52014,774.83514
772.01465,772.8205,791.3553,761.53845
763.5531,768.7912,784.5055,759.5238
765.9707,770.40295,776.8498,771.6117
786.9231,776.4469,782.49084,784.90845
785.31134,776.04395,788.5348,773.22345
777.6557,777.6557,789.7436,765.9707
778.46155,774.0293,781.28204,765.56775
776.8498,770.40295,781.28204,760.7326
778.46155,777.6557,783.69965,766.3736
791.75824,787.326,786.52014,781.28204
790.54944,790.14655,796.5934,777.6557
777.25275,783.2967,790.54944,767.98535
786.1172,782.0879,786.52014,778.0586
787.72894,782.0879,792.1612,786.52014
789.7436,791.3553,796.5934,783.69965
794.17584,797.8022,801.02563,784.90845
788.1319,786.52014,800.6227,779.2674
784.90845,783.2967,799.011,780.07324
777.6557,786.52014,799.81683,777.6557
778.46155,782.49084,799.41394,780.07324
784.90845,785.7143,800.6227,779.2674
793.7729,787.72894,795.78754,772.4176
793.7729,780.87915,790.9524,772.4176
790.54944,781.28204,796.5934,783.2967
790.9524,779.2674,797.3993,792.5641
792.5641,784.10254,797.3993,792.5641
798.20514,789.34064,797.3993,788.93774
802.23444,785.31134,792.5641,785.7143
805.05493,789.7436,791.3553,795.38464
796.5934,790.9524,789.7436,793.7729
798.60803,788.93774,794.17584,787.72894
791.3553,784.90845,797.3993,777.6557
776.04395,776.4469,789.34064,766.3736
779.67035,777.6557,790.9524,776.04395
781.28204,779.2674,799.41394,776.8498
790.14655,783.2967,800.6227,774.43225
794.9817,784.10254,796.5934,779.67035
776.4469,779.2674,790.9524,770.40295
772.8205,778.46155,790.14655,777.25275
783.69965,785.31134,793.7729,787.326
788.5348,791.75824,797.3993,776.8498
792.5641,799.011,803.44324,775.2381
788.1319,793.7729,798.60803,780.07324
781.28204,778.86444,779.2674,783.2967
788.1319,782.0879,776.04395,777.25275
794.57874,794.17584,788.93774,785.31134
793.7729,796.99634,795.78754,792.5641
783.2967,787.72894,785.31134,771.6117
773.6264,784.10254,782.49084,765.16486
784.5055,786.1172,793.36993,772.01465
791.3553,792.1612,799.41394,781.28204
780.07324,786.9231,792.96704,766.3736
788.5348,793.36993,798.60803,784.5055
788.5348,793.36993,796.99634,773.6264
781.685,792.1612,796.99634,787.326
775.2381,784.90845,787.326,775.64105
791.3553,789.34064,792.96704,777.6557
780.4762,780.07324,797.8022,768.3883
767.5824,770.80585,792.1612,756.7033
783.69965,773.22345,795.38464,774.83514
795.38464,788.5348,799.011,779.2674
783.2967,791.3553,788.1319,775.2381
783.69965,786.9231,788.1319,782.0879
790.9524,792.1612,799.41394,784.90845
778.0586,784.10254,806.26373,782.49084
778.86444,782.49084,811.0989,781.685
792.5641,790.54944,816.7399,788.1319
786.1172,785.31134,805.4579,779.67035
781.685,783.69965,797.8022,775.2381
784.90845,787.72894,805.4579,789.34064
790.9524,789.7436,809.89014,793.7729
795.78754,795.78754,812.71063,798.60803
791.3553,791.75824,806.26373,790.14655
786.9231,789.7436,794.9817,789.34064
797.3993,793.7729,800.6227,798.20514
801.4286,794.9817,802.23444,803.8461
791.3553,797.3993,803.44324,793.7729
789.34064,788.93774,797.8022,783.69965
778.86444,783.2967,794.57874,778.46155
791.3553,782.0879,796.1905,786.1172
788.93774,782.0879,787.326,789.7436
788.1319,780.87915,794.9817,776.8498
778.46155,778.86444,798.60803,769.59705
794.9817,781.28204,799.41394,782.8938
781.685,782.0879,801.02563,780.87915
796.1905,793.36993,803.8461,790.14655
789.34064,794.17584,799.011,780.4762
790.54944,792.96704,798.60803,779.2674
792.96704,787.72894,788.93774,781.28204
786.9231,781.685,781.685,782.49084
799.011,788.93774,795.38464,790.9524
804.2491,796.1905,802.23444,794.17584
796.5934,792.1612,794.9817,784.90845
795.78754,783.69965,785.7143,774.0293
795.78754,785.31134,784.90845,777.25275
801.4286,792.5641,793.7729,789.7436
800.6227,791.75824,800.2198,788.93774
793.7729,791.3553,795.78754,776.8498
788.5348,784.5055,785.31134,772.4176
790.9524,780.07324,792.5641,779.2674
794.17584,779.67035,796.1905,782.0879
792.5641,782.8938,786.1172,784.5055
796.99634,789.34064,789.7436,786.52014
789.7436,780.4762,793.7729,770.40295
771.6117,770.0,786.9231,762.3443
771.2088,772.8205,792.96704,770.0
788.1319,783.69965,799.011,780.87915
797.8022,788.93774,793.36993,782.0879
778.46155,776.04395,794.17584,773.22345
788.5348,780.87915,790.9524,776.8498
780.4762,785.31134,798.20514,770.40295
786.1172,792.1612,792.5641,770.40295
795.78754,794.57874,792.5641,771.6117
789.7436,786.52014,790.54944,776.4469
790.14655,788.5348,798.20514,785.7143
790.9524,789.34064,796.5934,789.7436
788.5348,790.14655,799.41394,783.69965
786.1172,788.5348,803.8461,777.25275
781.28204,778.46155,789.34064,759.5238
791.3553,794.17584,791.75824,771.2088
776.8498,780.4762,789.34064,758.315
772.4176,785.31134,794.9817,770.40295
770.40295,784.10254,790.9524,765.9707
767.98535,784.10254,786.1172,759.92676
772.01465,785.31134,792.96704,771.2088
783.69965,796.99634,805.8608,786.52014
788.5348,807.0696,811.50183,796.5934
798.20514,804.2491,814.3223,800.6227
801.02563,802.23444,813.5165,792.5641
795.38464,801.02563,809.0842,784.5055
794.17584,800.6227,814.7253,794.17584
794.17584,799.011,818.3516,801.02563
787.326,795.38464,807.8755,790.9524
798.20514,799.011,805.05493,781.28204
800.2198,794.57874,796.99634,781.28204
787.72894,792.1612,795.78754,786.9231
784.90845,798.20514,804.65204,792.5641
789.7436,800.6227,804.2491,803.0403
791.3553,797.3993,803.44324,793.7729
778.46155,780.07324,795.38464,775.2381
774.0293,772.8205,784.90845,780.07324
777.25275,777.25275,779.67035,787.72894
785.7143,780.4762,784.5055,789.7436
792.5641,788.5348,796.99634,790.9524
792.1612,787.72894,798.20514,783.69965
785.7143,789.7436,811.0989,784.10254
784.5055,786.1172,805.8608,783.69965
793.36993,788.93774,797.8022,780.4762
787.72894,784.5055,803.0403,784.10254
790.14655,793.36993,789.7436,773.6264
772.8205,773.6264,794.9817,776.04395
772.4176,779.2674,788.1319,776.8498
789.34064,787.326,797.3993,777.6557
781.28204,783.2967,792.1612,778.46155
782.0879,779.67035,788.5348,777.6557
783.69965,780.87915,796.1905,772.01465
782.49084,782.8938,790.14655,785.31134
786.1172,792.96704,792.1612,782.8938
790.54944,790.9524,783.69965,783.2967
777.6557,780.87915,774.83514,772.8205
772.8205,787.72894,789.34064,782.0879
778.86444,783.2967,790.54944,789.7436
777.25275,778.0586,788.5348,784.90845
777.6557,784.10254,794.57874,771.6117
766.3736,776.8498,788.5348,760.32965
767.5824,776.8498,775.2381,770.80585
785.31134,784.90845,774.43225,788.5348
780.87915,788.1319,791.75824,784.10254
788.5348,786.1172,788.1319,784.5055
788.93774,784.10254,789.7436,778.0586
778.46155,770.40295,778.86444,770.40295
770.0,766.3736,777.25275,765.56775
782.49084,781.685,790.54944,774.43225
782.0879,787.72894,790.14655,772.4176
782.8938,784.10254,782.0879,765.56775
782.49084,778.46155,782.8938,763.1502
787.326,775.64105,781.685,778.0586
778.86444,777.6557,781.28204,782.0879
774.83514,784.10254,782.0879,773.6264
780.4762,783.69965,784.5055,772.01465
779.67035,782.0879,788.1319,770.80585
782.49084,781.28204,778.86444,776.8498
786.9231,776.8498,784.10254,786.1172
790.54944,781.685,805.05493,791.3553
786.52014,787.326,801.02563,770.40295
788.93774,783.69965,797.3993,784.5055
788.93774,784.5055,794.57874,788.5348
790.54944,788.93774,809.0842,780.4762
794.17584,791.75824,796.99634,791.3553
791.3553,786.1172,791.3553,787.326
788.1319,781.685,786.9231,780.07324
779.67035,784.5055,790.54944,778.86444
778.46155,784.5055,793.7729,779.67035
784.5055,786.1172,790.54944,784.10254
782.8938,788.93774,791.3553,789.7436
783.2967,789.7436,797.8022,779.2674
786.52014,788.93774,796.5934,774.83514
780.87915,786.9231,791.75824,782.49084
777.25275,784.90845,790.54944,788.1319
786.52014,784.5055,788.5348,784.10254
788.1319,780.07324,780.87915,781.28204
781.685,777.6557,782.49084,783.69965
777.6557,783.2967,794.17584,788.93774
782.8938,787.326,801.8315,794.57874
790.54944,785.7143,806.6667,791.3553
791.75824,783.69965,797.8022,780.87915
780.4762,781.28204,782.8938,774.0293
792.5641,794.17584,797.3993,790.14655
782.8938,786.1172,788.1319,781.685
792.5641,794.9817,803.44324,787.326
798.20514,792.1612,805.05493,786.1172
786.52014,784.90845,796.99634,779.2674
767.98535,778.46155,789.7436,774.0293
784.10254,782.8938,794.57874,785.7143
797.8022,791.75824,800.6227,786.9231
785.31134,789.7436,803.0403,774.0293
778.0586,777.6557,802.23444,767.5824
785.31134,779.2674,796.5934,776.8498
786.52014,789.34064,790.14655,784.90845
785.7143,786.52014,789.34064,777.6557
791.3553,785.7143,796.5934,769.19415
795.78754,786.9231,801.4286,778.46155
790.54944,775.2381,796.5934,784.90845
782.0879,767.5824,792.1612,780.87915
782.49084,775.64105,792.5641,786.9231
785.31134,786.52014,790.9524,782.0879
776.04395,789.7436,782.8938,769.19415
771.6117,785.7143,781.685,771.6117
788.93774,788.5348,792.5641,784.10254
795.78754,793.36993,795.38464,790.14655
790.9524,796.1905,794.17584,783.2967
782.8938,798.60803,794.57874,777.25275
784.5055,797.8022,795.78754,781.685
791.75824,799.41394,799.41394,795.78754
792.5641,799.011,802.23444,796.1905
796.5934,795.38464,798.60803,783.69965
791.75824,792.1612,790.54944,778.0586
785.31134,786.1172,788.1319,773.6264
788.5348,782.0879,792.5641,772.4176
800.6227,788.1319,798.60803,792.1612
798.60803,794.17584,798.60803,788.1319
782.0879,798.60803,788.93774,774.0293
790.14655,803.0403,785.7143,780.07324
796.1905,800.6227,788.5348,773.22345
802.23444,810.293,794.17584,793.36993
800.2198,806.26373,782.8938,791.75824
788.5348,786.1172,766.3736,772.01465
791.3553,794.17584,777.25275,782.49084
793.36993,805.8608,793.36993,792.1612
794.9817,800.6227,793.36993,782.8938
784.5055,792.1612,792.1612,763.5531
791.3553,795.38464,786.52014,772.01465
796.1905,797.8022,790.9524,777.25275
790.9524,799.41394,786.9231,787.72894
791.3553,801.4286,794.17584,787.72894
783.69965,800.2198,786.1172,773.22345
784.5055,805.05493,783.2967,774.83514
785.7143,792.1612,778.46155,781.28204
784.90845,796.99634,777.6557,782.49084
791.75824,802.6374,787.72894,783.69965
792.5641,795.38464,788.5348,778.0586
792.96704,803.8461,782.8938,774.43225
794.9817,801.02563,786.1172,775.64105
792.96704,796.1905,789.7436,784.5055
794.9817,797.3993,793.36993,790.14655
809.89014,807.8755,804.65204,795.78754
801.02563,797.8022,795.78754,789.34064
802.23444,800.6227,792.96704,792.96704
805.4579,801.4286,798.20514,795.38464
807.8755,803.0403,806.26373,793.7729
813.5165,811.50183,814.7253,802.23444
808.2784,815.5311,813.1135,810.293
803.44324,814.3223,810.696,801.4286
810.696,815.5311,816.337,798.20514
810.696,818.7546,813.1135,800.6227
810.696,805.8608,807.8755,799.81683
810.696,817.9487,808.68134,803.0403
803.8461,799.011,811.9048,801.4286
795.38464,792.5641,803.44324,797.8022
792.1612,791.75824,799.011,793.36993
801.8315,795.38464,804.2491,786.9231
788.93774,788.1319,803.44324,772.4176
765.56775,771.2088,797.8022,770.40295
768.3883,769.59705,790.9524,774.83514
773.22345,772.8205,792.1612,779.67035
780.87915,776.4469,798.20514,787.72894
808.68134,805.4579,809.0842,801.02563
778.86444,770.80585,788.1319,768.7912
764.35895,763.95605,776.8498,753.47986
763.95605,769.59705,782.0879,773.6264
776.8498,780.87915,786.9231,784.5055
783.69965,785.31134,787.72894,779.67035
770.40295,772.8205,785.7143,765.16486
758.71796,764.7619,787.326,746.2271
752.27106,762.3443,780.07324,739.3773
775.2381,772.4176,792.96704,766.77655
772.8205,772.01465,798.20514,766.3736
777.6557,771.2088,781.28204,769.19415
785.31134,776.4469,789.34064,774.83514
783.2967,778.86444,795.78754,779.67035
788.5348,786.1172,801.4286,786.9231
798.60803,786.9231,807.47253,789.34064
789.7436,785.7143,801.8315,782.0879
782.8938,782.8938,795.38464,780.07324
785.7143,784.10254,791.3553,788.1319
784.5055,793.36993,786.9231,800.2198
788.93774,792.1612,791.75824,795.78754
787.72894,780.87915,798.20514,777.25275
778.0586,774.43225,795.78754,766.77655
784.5055,784.10254,796.99634,780.4762
790.9524,790.9524,803.0403,790.9524
784.10254,789.7436,803.8461,788.1319
789.34064,794.17584,803.8461,788.93774
791.3553,794.57874,805.4579,784.5055
784.5055,788.5348,799.81683,779.2674
781.28204,780.4762,790.9524,780.87915
778.46155,785.7143,791.3553,773.22345
782.0879,784.5055,790.14655,771.6117
778.86444,781.685,786.52014,781.28204
779.67035,784.5055,788.1319,792.5641
785.31134,796.5934,794.57874,786.52014
787.326,803.0403,800.6227,786.1172
779.67035,792.5641,795.38464,782.0879
787.72894,784.5055,795.78754,786.1172
774.43225,786.1172,791.75824,778.86444
786.52014,791.75824,799.011,795.78754
789.34064,803.8461,799.41394,802.23444
799.81683,812.3077,800.6227,792.5641
809.89014,808.2784,796.1905,785.31134
794.57874,807.8755,795.78754,791.75824
794.17584,812.3077,802.6374,794.57874
810.293,809.0842,805.05493,803.8461
813.5165,804.65204,805.4579,807.0696
805.05493,798.20514,797.8022,793.36993
802.23444,793.7729,788.1319,793.36993
799.41394,788.93774,784.90845,787.72894
805.8608,791.3553,785.31134,789.7436
805.4579,798.20514,792.96704,794.9817
803.0403,795.38464,797.3993,789.7436
799.011,791.3553,794.9817,790.9524
799.41394,799.011,798.20514,805.05493
802.23444,799.81683,796.5934,803.0403
794.17584,788.1319,789.34064,788.93774
783.2967,776.8498,784.5055,772.4176
777.25275,775.64105,783.2967,769.19415
770.0,775.2381,780.87915,775.2381
780.87915,780.4762,785.7143,782.8938
792.96704,787.72894,791.75824,787.326
790.9524,784.5055,790.54944,768.7912
783.69965,777.25275,781.685,761.13556
789.34064,779.67035,776.4469,776.04395
792.5641,783.2967,781.28204,792.96704
788.1319,788.5348,790.9524,790.9524
777.6557,785.7143,790.54944,771.2088
767.98535,772.01465,781.685,761.9414
772.01465,771.6117,781.685,771.2088
782.8938,787.72894,789.34064,782.0879
782.8938,792.1612,794.17584,779.67035
778.0586,783.2967,788.1319,776.04395
776.4469,780.07324,780.4762,774.43225
767.98535,773.22345,775.2381,761.53845
773.6264,771.6117,778.0586,762.3443
773.6264,768.7912,782.49084,762.74725
764.35895,759.92676,781.28204,761.9414
763.95605,769.19415,773.6264,755.09155
763.95605,761.9414,780.07324,768.7912
758.71796,764.7619,774.43225,761.53845
763.5531,773.22345,782.0879,765.9707
779.2674,786.9231,791.3553,777.6557
778.86444,782.8938,784.5055,777.6557
767.98535,775.2381,781.28204,773.6264
773.22345,774.0293,775.64105,766.77655
781.28204,778.86444,780.4762,786.1172
781.28204,778.0586,791.75824,788.5348
769.19415,770.0,790.14655,765.16486
753.8828,767.1795,787.326,765.56775
767.98535,775.64105,791.3553,780.87915
777.6557,780.07324,791.3553,770.0
767.98535,776.04395,782.0879,759.92676
767.1795,774.43225,774.83514,758.315
772.4176,769.59705,775.2381,761.53845
765.16486,758.71796,778.46155,769.59705
763.95605,764.35895,788.93774,774.0293
786.1172,782.49084,800.2198,776.4469
781.28204,777.25275,790.14655,765.9707
765.9707,771.6117,784.90845,763.1502
770.40295,777.6557,786.52014,773.6264
784.10254,783.2967,790.14655,792.96704
797.3993,789.34064,796.1905,790.54944
796.99634,790.14655,793.7729,783.69965
790.54944,780.4762,783.2967,770.80585
790.14655,778.0586,788.93774,770.80585
777.25275,781.685,789.34064,782.49084
780.87915,780.4762,794.9817,775.2381
784.90845,783.69965,802.23444,774.83514
790.54944,786.52014,798.60803,790.54944
787.72894,786.9231,805.4579,790.54944
801.8315,797.8022,814.3223,800.6227
810.293,807.47253,817.5458,807.0696
809.0842,803.8461,817.1429,807.0696
802.6374,795.78754,809.0842,794.57874
799.81683,794.9817,808.68134,796.1905
799.011,796.99634,819.5604,795.78754
799.41394,797.3993,827.619,809.89014
799.41394,790.9524,819.5604,806.6667
799.011,783.69965,806.26373,787.72894
793.7729,782.49084,802.6374,786.52014
789.34064,786.1172,807.0696,797.3993
786.52014,787.72894,806.26373,801.02563
788.1319,791.3553,802.23444,797.3993
783.69965,788.1319,796.5934,780.87915
780.4762,780.4762,794.17584,788.1319
786.1172,777.25275,798.60803,802.23444
783.2967,782.49084,799.81683,784.10254
786.9231,789.34064,804.65204,791.3553
792.1612,790.14655,810.293,800.6227
789.7436,790.54944,801.8315,793.36993
786.1172,788.5348,794.17584,786.1172
801.4286,796.99634,799.81683,801.4286
799.41394,801.4286,801.4286,799.81683
780.4762,790.14655,794.17584,778.46155
782.49084,786.1172,795.78754,788.93774
779.67035,785.7143,792.5641,779.67035
790.14655,784.10254,796.1905,793.7729
796.1905,792.5641,800.2198,791.75824
794.9817,799.41394,805.05493,787.72894
792.5641,792.1612,801.02563,792.1612
800.6227,786.9231,803.44324,810.293
805.4579,790.14655,804.2491,818.3516
800.6227,789.34064,802.23444,804.2491
805.05493,794.57874,802.6374,793.36993
797.8022,794.57874,788.93774,785.7143
786.52014,788.1319,785.31134,788.5348
793.36993,791.75824,793.7729,799.81683
793.7729,782.0879,791.3553,781.685
787.326,780.07324,789.7436,776.4469
786.1172,790.54944,787.72894,793.36993
788.93774,793.36993,786.9231,800.2198
776.8498,776.04395,786.1172,783.2967
774.83514,776.04395,792.96704,774.83514
778.86444,780.4762,794.57874,774.43225
773.6264,774.83514,793.36993,778.0586
795.78754,792.1612,794.17584,797.8022
771.6117,774.43225,794.17584,781.28204
779.67035,781.28204,799.81683,784.10254
782.49084,782.0879,798.20514,778.46155
761.9414,769.19415,784.5055,762.74725
761.53845,771.6117,784.90845,771.2088
765.9707,772.4176,782.8938,769.59705
761.9414,772.8205,779.67035,760.7326
763.1502,768.3883,778.46155,760.7326
760.32965,759.92676,771.6117,757.1062
761.13556,762.74725,770.0,756.7033
767.98535,769.59705,781.28204,767.98535
774.43225,772.8205,784.10254,774.43225
791.75824,779.67035,786.52014,774.83514
788.93774,776.4469,786.1172,772.01465
776.04395,782.8938,785.7143,780.4762
786.52014,790.54944,794.17584,775.2381
799.011,798.60803,800.2198,778.86444
788.93774,795.38464,800.6227,774.0293
780.4762,784.90845,799.81683,778.86444
780.87915,779.67035,794.57874,792.5641
786.52014,788.1319,797.8022,794.17584
790.54944,795.78754,801.8315,792.5641
778.86444,783.69965,796.1905,778.86444
774.83514,774.43225,782.49084,775.2381
774.83514,776.4469,792.96704,776.4469
786.1172,786.1172,798.20514,788.93774
794.57874,794.57874,802.6374,790.54944
799.011,801.8315,806.26373,784.90845
805.05493,803.0403,801.4286,785.31134
793.7729,792.5641,788.5348,790.54944
792.1612,799.41394,796.1905,794.9817
808.68134,800.6227,801.4286,796.1905
803.8461,795.38464,801.8315,795.78754
782.8938,790.54944,797.3993,786.1172
766.3736,780.4762,778.46155,774.43225
781.685,787.72894,781.28204,771.6117
795.78754,790.14655,784.10254,779.67035
791.3553,787.326,786.9231,784.5055
786.1172,786.52014,793.7729,774.43225
775.64105,780.87915,786.9231,766.3736
770.80585,778.86444,781.685,771.2088
779.2674,788.1319,787.72894,774.0293
790.14655,797.3993,794.17584,771.6117
795.78754,792.96704,791.75824,777.25275
779.2674,779.2674,780.87915,770.40295
773.22345,772.4176,778.86444,769.59705
780.87915,775.2381,784.90845,780.07324
775.64105,779.67035,783.2967,776.8498
777.25275,780.4762,783.2967,776.4469
786.1172,775.64105,784.90845,776.8498
782.8938,778.86444,789.34064,781.685
783.2967,774.0293,785.31134,778.46155
788.5348,779.67035,784.90845,776.8498
776.04395,772.8205,780.4762,767.98535
770.0,770.40295,780.07324,763.1502
773.6264,773.22345,778.0586,766.77655
773.22345,771.2088,789.7436,768.3883
780.07324,771.2088,794.17584,774.0293
785.7143,776.8498,788.93774,775.64105
782.49084,780.87915,791.75824,771.2088
775.64105,777.25275,787.326,771.6117
772.4176,772.8205,779.67035,768.3883
780.4762,784.10254,796.5934,770.40295
776.8498,780.87915,794.17584,762.3443
774.43225,779.67035,792.96704,760.7326
775.64105,786.52014,799.41394,778.0586
779.67035,790.9524,798.20514,780.87915
774.83514,775.2381,784.90845,765.16486
793.36993,795.38464,804.2491,786.1172
787.326,790.14655,804.2491,790.54944
772.4176,782.8938,797.3993,788.1319
787.72894,792.96704,800.2198,789.34064
793.7729,790.54944,803.0403,798.60803
792.96704,789.34064,806.6667,797.8022
802.6374,801.4286,804.65204,796.99634
792.96704,795.38464,802.6374,802.6374
799.011,801.8315,804.65204,801.8315
805.8608,802.6374,808.2784,791.75824
813.5165,809.4872,808.2784,799.81683
819.5604,807.8755,808.68134,795.78754
801.4286,795.78754,800.6227,793.7729
792.1612,794.57874,800.6227,796.99634
804.2491,797.3993,802.23444,799.81683
807.0696,797.8022,800.2198,799.81683
803.44324,794.9817,797.3993,794.9817
795.78754,791.75824,785.31134,787.326
795.78754,794.57874,788.5348,787.326
808.68134,795.78754,795.38464,797.3993
813.1135,799.41394,786.52014,804.65204
807.8755,797.3993,788.5348,793.7729
799.011,790.14655,786.52014,779.67035
801.02563,790.9524,780.87915,789.7436
802.23444,789.7436,786.1172,799.011
803.44324,794.57874,794.17584,802.23444
809.89014,800.6227,795.78754,796.99634
802.6374,794.57874,796.1905,786.1172
788.1319,787.326,787.326,782.49084
784.5055,796.99634,784.10254,787.326
794.57874,789.34064,794.57874,792.5641
779.2674,775.64105,780.07324,774.43225
793.7729,800.6227,794.17584,800.2198
782.0879,777.25275,778.0586,786.9231
794.57874,795.78754,795.38464,800.6227
790.54944,790.54944,794.17584,788.93774
794.9817,790.14655,794.57874,789.7436
802.6374,800.6227,804.65204,791.75824
798.60803,796.99634,799.81683,803.8461
790.54944,793.7729,789.7436,805.8608
791.75824,801.02563,792.96704,797.3993
807.0696,809.89014,803.0403,808.68134
806.26373,805.05493,795.78754,803.0403
790.9524,794.17584,783.69965,789.34064
796.99634,793.36993,785.7143,801.8315
792.1612,788.1319,782.0879,799.011
781.685,782.8938,775.64105,779.67035
779.67035,778.0586,776.04395,773.6264
780.4762,770.0,774.43225,770.40295
788.5348,776.04395,783.69965,790.14655
797.3993,790.9524,790.14655,816.7399
813.1135,802.6374,794.9817,811.9048
815.5311,804.65204,803.44324,804.65204
804.2491,789.7436,796.1905,802.23444
805.05493,777.6557,790.9524,799.41394
809.0842,782.8938,792.5641,809.89014
803.44324,798.20514,794.57874,811.50183
800.6227,801.4286,796.5934,792.96704
792.1612,789.34064,788.1319,779.2674
778.86444,778.46155,775.64105,776.8498
789.7436,786.52014,772.8205,787.72894
796.5934,790.54944,788.1319,795.38464
785.7143,782.8938,797.3993,783.69965
776.4469,776.4469,784.5055,765.56775
774.43225,766.77655,773.22345,767.1795
764.7619,764.35895,769.19415,768.3883
771.6117,772.01465,775.64105,769.59705
785.31134,780.87915,784.5055,772.8205
