eeg_1,eeg_2,eeg_3,eeg_4
787.72894,790.9524,801.4286,801.4286
795.78754,794.57874,796.1905,796.1905
797.8022,801.02563,798.60803,799.41394
792.96704,801.02563,799.41394,798.20514
795.78754,802.23444,794.9817,802.23444
804.65204,803.0403,795.38464,803.8461
807.47253,791.75824,793.36993,795.78754
796.99634,784.90845,788.1319,794.9817
789.34064,785.7143,789.7436,796.5934
784.90845,789.7436,791.75824,789.7436
776.04395,791.75824,792.1612,791.3553
781.685,784.10254,789.7436,792.5641
789.34064,784.5055,785.7143,792.5641
803.0403,789.7436,788.93774,799.011
813.1135,789.34064,790.14655,797.8022
806.6667,789.34064,790.14655,794.9817
793.36993,792.5641,787.72894,799.011
779.2674,792.5641,787.326,792.1612
781.685,794.57874,788.1319,790.54944
791.3553,788.93774,784.90845,793.7729
790.9524,791.3553,782.0879,801.02563
800.6227,802.23444,788.1319,800.6227
792.1612,796.5934,786.1172,815.9341
786.9231,782.49084,789.34064,800.2198
793.36993,790.54944,799.81683,787.72894
792.1612,795.78754,800.2198,791.3553
793.7729,790.14655,792.96704,790.54944
799.81683,794.9817,795.78754,799.41394
806.26373,796.99634,800.6227,806.26373
805.05493,796.1905,800.2198,801.02563
794.9817,796.1905,798.20514,808.2784
791.75824,792.5641,799.81683,809.89014
794.17584,792.5641,801.02563,799.011
790.54944,796.99634,798.60803,799.011
793.7729,799.41394,797.3993,803.0403
809.89014,794.17584,796.99634,811.0989
815.9341,792.1612,793.7729,810.293
797.3993,796.5934,791.75824,798.20514
790.14655,798.20514,798.60803,797.8022
796.99634,796.99634,802.6374,802.6374
795.78754,791.75824,792.96704,788.93774
788.1319,790.9524,786.52014,781.685
791.3553,796.5934,787.326,787.326
807.8755,800.2198,788.5348,787.72894
802.23444,799.011,785.31134,786.52014
793.7729,802.23444,788.5348,780.87915
799.81683,800.6227,790.54944,780.4762
807.0696,788.1319,785.7143,787.72894
807.8755,787.326,783.69965,793.7729
804.2491,800.6227,787.72894,794.57874
797.3993,799.81683,789.34064,790.9524
792.1612,791.75824,784.90845,793.7729
793.36993,789.34064,781.28204,792.1612
795.38464,782.8938,781.685,777.6557
787.326,784.10254,786.9231,777.6557
784.5055,786.1172,788.5348,786.52014
786.52014,785.31134,778.86444,788.93774
780.4762,789.34064,777.25275,786.52014
781.28204,786.1172,784.5055,788.93774
783.69965,781.28204,787.72894,794.9817
794.57874,786.9231,790.9524,792.5641
808.2784,792.1612,794.17584,795.78754
792.96704,790.54944,788.93774,800.2198
768.7912,792.1612,785.31134,799.41394
778.0586,793.7729,787.72894,797.8022
782.49084,791.75824,793.36993,794.9817
778.86444,794.17584,792.5641,784.5055
780.4762,793.7729,789.7436,780.07324
780.07324,792.1612,789.34064,784.90845
788.93774,798.20514,788.93774,794.57874
796.1905,804.65204,790.54944,797.8022
797.8022,800.2198,786.9231,792.1612
798.60803,794.9817,783.2967,791.3553
793.7729,799.011,784.5055,789.34064
788.93774,802.23444,788.1319,794.57874
793.36993,791.75824,784.90845,791.3553
791.3553,791.75824,780.07324,781.685
788.5348,794.9817,782.8938,788.5348
789.7436,796.99634,786.1172,784.90845
791.75824,796.5934,791.3553,779.67035
801.8315,791.3553,796.1905,791.3553
801.8315,801.02563,792.5641,796.5934
798.60803,803.8461,789.34064,796.99634
800.6227,795.38464,788.5348,804.2491
794.17584,791.3553,786.9231,801.4286
784.90845,793.36993,791.3553,792.96704
788.5348,799.41394,790.9524,799.011
787.72894,799.011,786.1172,801.8315
793.7729,796.5934,780.87915,803.0403
801.8315,800.2198,781.685,804.2491
792.96704,803.44324,785.7143,803.0403
788.1319,798.20514,786.9231,798.20514
788.1319,799.011,787.326,793.36993
784.10254,805.4579,790.9524,792.1612
792.5641,797.3993,789.7436,791.75824
799.41394,789.34064,786.1172,798.60803
796.1905,796.5934,788.5348,804.2491
795.38464,799.011,785.7143,789.7436
790.14655,794.17584,781.28204,778.86444
791.3553,793.7729,783.69965,779.2674
788.1319,792.96704,787.326,784.10254
779.67035,796.1905,784.90845,791.3553
782.8938,800.6227,783.2967,792.96704
788.5348,796.1905,782.0879,787.326
793.7729,792.1612,780.87915,785.31134
795.38464,796.99634,784.10254,787.326
783.69965,794.17584,788.1319,792.96704
784.5055,788.93774,785.7143,789.34064
790.54944,794.17584,782.8938,788.93774
784.90845,796.1905,788.93774,795.78754
778.86444,790.9524,790.54944,790.14655
782.49084,792.96704,791.3553,789.34064
786.9231,797.8022,791.3553,788.1319
790.9524,794.9817,788.5348,785.7143
784.90845,788.1319,786.52014,783.2967
782.49084,787.326,792.1612,788.93774
799.41394,791.3553,797.8022,804.65204
801.8315,801.02563,793.7729,805.4579
798.20514,800.2198,787.326,803.0403
793.36993,789.34064,780.07324,796.5934
785.7143,791.75824,783.69965,790.54944
779.2674,792.96704,788.1319,786.52014
781.28204,790.14655,784.5055,784.10254
796.99634,790.9524,779.67035,782.49084
795.78754,796.1905,780.4762,783.69965
781.28204,794.17584,782.0879,784.5055
783.2967,789.7436,782.8938,783.2967
797.8022,789.34064,784.90845,783.69965
799.81683,788.93774,781.28204,784.10254
779.67035,794.17584,779.2674,779.2674
774.43225,793.36993,779.67035,780.87915
783.2967,788.5348,783.69965,786.52014
783.2967,787.326,788.5348,784.90845
792.96704,786.9231,788.1319,790.54944
794.9817,790.14655,782.8938,789.7436
794.17584,793.7729,778.0586,781.28204
792.96704,796.5934,776.04395,785.7143
783.2967,795.78754,774.83514,793.7729
781.685,792.5641,776.04395,779.2674
793.7729,793.7729,780.87915,785.31134
801.8315,801.4286,786.9231,790.54944
802.6374,801.4286,786.9231,794.17584
794.17584,793.36993,781.28204,784.90845
793.36993,796.1905,783.69965,789.34064
796.99634,792.1612,782.8938,788.93774
793.7729,791.75824,790.54944,797.3993
804.65204,792.5641,791.3553,803.0403
779.67035,793.7729,776.04395,785.7143
803.0403,800.2198,787.326,806.6667
799.81683,802.6374,784.10254,801.4286
813.91943,805.05493,783.2967,798.20514
802.23444,803.8461,788.93774,805.4579
786.9231,803.8461,793.36993,802.6374
789.7436,810.696,792.5641,793.36993
787.72894,805.05493,786.52014,788.93774
786.9231,796.5934,784.90845,786.52014
791.3553,797.3993,787.72894,790.54944
792.1612,799.41394,785.31134,790.54944
788.93774,801.02563,788.1319,790.54944
789.34064,796.5934,792.1612,787.72894
782.49084,794.9817,791.3553,777.25275
780.07324,794.57874,788.93774,780.07324
788.93774,796.5934,787.72894,787.72894
792.96704,800.2198,788.93774,786.52014
793.36993,799.011,783.69965,786.1172
799.81683,803.0403,783.2967,791.75824
814.3223,805.4579,788.5348,793.7729
819.15753,803.44324,786.9231,801.8315
800.6227,797.8022,782.0879,802.6374
794.17584,793.36993,780.4762,792.96704
811.9048,796.1905,782.8938,794.57874
817.1429,800.6227,787.72894,805.05493
796.5934,801.02563,790.9524,813.1135
791.75824,800.2198,790.9524,810.696
800.6227,796.99634,790.54944,809.4872
799.41394,797.3993,787.326,809.89014
798.60803,800.2198,788.5348,799.011
794.17584,801.8315,791.3553,790.14655
788.93774,792.5641,784.90845,788.5348
783.69965,784.90845,779.67035,778.86444
782.8938,784.5055,785.7143,782.0879
801.02563,798.60803,793.36993,807.8755
782.49084,791.75824,790.14655,792.1612
780.4762,792.5641,788.5348,789.7436
783.2967,786.1172,784.90845,775.2381
787.326,785.31134,785.31134,769.59705
783.69965,787.326,788.1319,772.4176
776.4469,791.3553,790.14655,776.4469
786.1172,793.36993,786.52014,791.75824
795.38464,786.52014,786.52014,791.3553
793.7729,782.8938,785.7143,783.2967
810.293,787.326,782.8938,784.5055
786.52014,790.54944,789.7436,784.10254
790.14655,782.0879,780.87915,784.5055
783.2967,793.7729,785.31134,798.60803
799.011,788.5348,780.4762,781.685
815.9341,788.5348,780.07324,790.9524
806.6667,792.5641,781.685,792.96704
794.9817,792.96704,786.52014,793.7729
799.011,797.8022,786.1172,792.96704
805.4579,797.8022,781.685,794.9817
798.60803,800.6227,779.2674,793.7729
787.72894,793.36993,777.6557,790.54944
794.17584,783.69965,780.87915,791.75824
794.57874,788.1319,784.5055,793.36993
807.47253,790.14655,780.4762,794.9817
817.5458,791.75824,782.0879,799.81683
799.011,794.17584,787.326,802.23444
791.3553,793.36993,787.72894,796.99634
797.3993,794.9817,786.9231,789.7436
788.1319,792.1612,786.1172,784.5055
781.685,792.1612,787.326,784.10254
786.9231,796.5934,790.14655,785.7143
787.72894,803.8461,791.3553,788.93774
790.14655,798.60803,790.14655,785.7143
790.14655,791.3553,785.7143,782.0879
786.9231,790.9524,781.28204,786.52014
786.9231,789.7436,780.07324,789.34064
793.7729,792.1612,782.8938,784.90845
806.26373,792.1612,786.52014,781.685
801.8315,794.9817,790.14655,784.90845
778.86444,791.75824,789.7436,787.72894
773.22345,787.326,789.7436,784.10254
785.31134,794.17584,789.7436,786.9231
795.78754,791.3553,786.1172,788.93774
802.23444,792.96704,785.31134,791.3553
806.26373,794.9817,784.5055,796.1905
806.6667,790.9524,787.326,800.6227
813.1135,789.7436,791.75824,798.20514
798.20514,782.8938,790.14655,796.5934
790.9524,781.685,787.72894,799.011
807.8755,786.9231,781.28204,794.17584
810.293,793.36993,780.87915,802.23444
806.6667,792.5641,785.7143,811.9048
805.05493,793.7729,790.14655,808.68134
808.68134,794.17584,790.9524,809.0842
801.02563,790.9524,786.9231,801.02563
788.1319,788.5348,781.685,795.38464
793.36993,788.1319,783.69965,800.2198
789.7436,785.7143,785.7143,795.78754
776.8498,779.67035,780.87915,787.72894
779.2674,778.0586,778.86444,783.2967
787.326,782.49084,776.8498,787.326
797.3993,786.9231,777.6557,787.72894
807.47253,787.72894,781.685,788.93774
803.0403,789.7436,783.2967,789.7436
781.685,786.1172,784.90845,788.1319
778.86444,788.1319,790.14655,791.3553
790.14655,789.7436,792.96704,803.8461
795.78754,794.17584,791.75824,801.8315
804.65204,792.96704,790.9524,800.6227
800.2198,779.2674,787.326,801.8315
796.99634,787.326,786.1172,793.7729
801.8315,790.54944,786.1172,794.9817
802.6374,782.49084,785.7143,796.1905
806.6667,781.685,787.72894,796.1905
796.99634,783.2967,789.34064,799.81683
781.685,783.2967,787.72894,803.8461
788.5348,785.7143,782.8938,803.8461
784.5055,786.52014,784.90845,801.4286
786.1172,785.31134,791.75824,802.6374
799.81683,790.54944,792.96704,796.1905
800.2198,787.326,787.326,795.38464
807.0696,786.52014,787.72894,800.2198
808.2784,785.31134,792.1612,798.60803
795.38464,784.5055,792.5641,802.23444
785.31134,793.7729,793.7729,802.6374
784.10254,792.1612,790.14655,795.38464
784.90845,784.90845,786.1172,797.3993
788.93774,788.1319,789.7436,797.8022
793.7729,782.0879,791.3553,783.2967
778.0586,787.72894,792.96704,783.69965
787.72894,786.1172,793.36993,782.49084
783.2967,798.20514,793.36993,785.31134
796.5934,791.75824,790.14655,785.7143
797.8022,799.011,792.1612,788.5348
796.99634,792.96704,785.31134,784.90845
790.54944,795.38464,784.90845,784.90845
790.14655,790.9524,786.52014,786.1172
786.1172,790.54944,792.96704,789.34064
799.81683,792.96704,788.1319,783.69965
808.68134,794.17584,789.7436,782.49084
796.99634,791.75824,785.31134,786.9231
792.1612,794.17584,786.52014,786.9231
806.26373,795.38464,794.17584,785.7143
801.4286,794.9817,792.96704,785.31134
799.011,792.1612,788.93774,794.57874
816.7399,783.2967,786.1172,807.8755
815.5311,782.0879,784.90845,803.44324
800.6227,787.72894,786.9231,792.1612
796.99634,794.9817,786.9231,792.1612
794.9817,791.3553,783.69965,788.5348
796.1905,785.31134,776.04395,793.7729
802.23444,785.31134,773.6264,801.8315
802.23444,784.10254,786.1172,794.17584
794.57874,785.31134,791.75824,786.1172
793.7729,790.14655,790.9524,788.93774
794.57874,790.9524,788.5348,789.34064
789.34064,786.1172,782.49084,788.5348
784.90845,776.4469,781.28204,784.90845
783.69965,780.4762,790.14655,782.0879
794.9817,784.5055,793.36993,786.9231
794.57874,786.1172,783.69965,784.5055
796.1905,786.9231,779.67035,791.75824
796.5934,789.34064,786.52014,793.7729
788.1319,795.38464,788.1319,782.8938
796.99634,798.20514,789.7436,785.31134
799.41394,800.2198,788.93774,786.52014
804.2491,802.23444,786.52014,790.14655
816.7399,810.293,791.3553,795.38464
808.68134,812.3077,792.5641,796.5934
801.02563,796.99634,786.1172,793.7729
808.68134,787.326,781.28204,790.54944
798.20514,791.75824,781.685,793.36993
788.5348,791.75824,784.5055,796.99634
794.57874,791.75824,787.326,797.3993
793.7729,793.7729,788.5348,796.1905
815.12823,797.8022,792.1612,801.4286
803.44324,793.36993,790.14655,799.011
809.89014,796.1905,792.96704,800.6227
794.9817,788.5348,794.57874,792.96704
789.7436,794.9817,794.17584,788.1319
795.78754,797.8022,788.1319,796.99634
804.2491,788.1319,786.1172,805.4579
810.696,794.9817,788.1319,801.8315
806.26373,800.6227,788.1319,801.4286
801.02563,794.57874,788.93774,799.41394
794.17584,801.4286,792.1612,790.14655
785.7143,799.011,786.9231,785.31134
783.2967,791.75824,788.5348,783.2967
780.07324,791.3553,789.34064,784.10254
789.7436,790.54944,782.49084,786.9231
790.9524,792.96704,785.31134,788.5348
787.326,799.011,788.5348,790.14655
814.3223,795.38464,790.14655,793.7729
821.978,788.1319,792.96704,798.20514
803.8461,790.9524,793.7729,801.4286
795.78754,790.9524,793.36993,795.38464
793.36993,782.8938,785.7143,793.36993
794.57874,791.75824,782.8938,796.99634
805.8608,801.4286,790.9524,796.5934
804.65204,792.1612,788.5348,797.8022
802.23444,793.7729,787.326,797.3993
794.57874,795.38464,786.52014,796.5934
796.5934,801.4286,783.2967,799.011
806.6667,810.696,786.9231,796.5934
798.60803,801.02563,789.7436,801.8315
799.011,792.5641,790.54944,811.0989
809.4872,792.5641,790.9524,809.0842
801.02563,792.1612,787.326,814.7253
797.8022,788.93774,786.9231,815.9341
802.6374,796.5934,790.54944,801.8315
799.41394,799.41394,791.3553,792.96704
788.93774,792.1612,792.1612,792.5641
793.36993,790.54944,790.54944,789.7436
813.91943,790.9524,786.52014,783.69965
811.9048,793.36993,789.34064,781.685
799.011,801.02563,794.17584,788.5348
796.1905,787.326,785.31134,789.34064
794.57874,797.3993,790.54944,791.3553
801.8315,790.54944,784.5055,788.1319
792.5641,793.36993,787.72894,788.1319
792.96704,792.1612,789.7436,795.78754
798.60803,790.9524,791.3553,791.75824
791.75824,792.96704,790.54944,788.93774
792.1612,792.5641,789.7436,794.17584
794.9817,792.5641,792.96704,797.8022
798.20514,794.17584,791.75824,797.3993
800.2198,794.57874,787.72894,795.38464
801.8315,791.3553,786.52014,792.1612
794.17584,781.685,782.8938,786.52014
787.326,779.2674,783.2967,785.31134
799.011,787.72894,786.52014,791.3553
798.20514,791.3553,786.9231,792.1612
807.8755,792.1612,791.75824,789.34064
803.8461,790.14655,789.34064,790.14655
800.6227,792.96704,792.96704,796.5934
806.6667,793.36993,793.36993,802.6374
811.0989,795.78754,794.57874,799.011
811.50183,795.78754,792.96704,798.20514
816.337,791.75824,791.75824,801.8315
816.337,796.5934,795.78754,798.20514
801.8315,800.2198,799.011,796.1905
799.011,794.9817,792.5641,796.5934
795.78754,792.1612,788.1319,795.78754
791.75824,791.75824,788.93774,792.1612
792.96704,793.7729,790.54944,787.326
789.34064,794.9817,794.17584,788.5348
793.7729,795.38464,793.7729,786.9231
792.5641,793.7729,791.75824,780.07324
791.75824,789.7436,790.14655,784.10254
784.90845,791.75824,789.7436,791.3553
786.9231,793.7729,792.96704,790.14655
808.68134,801.02563,796.5934,794.17584
799.011,799.011,790.14655,796.1905
786.52014,784.90845,783.2967,796.5934
794.57874,785.31134,788.1319,798.60803
797.8022,797.8022,793.7729,804.65204
797.8022,787.326,785.7143,797.3993
789.7436,796.99634,788.93774,804.65204
813.91943,784.10254,787.326,792.5641
815.12823,782.49084,784.90845,796.5934
809.4872,787.72894,788.1319,805.05493
808.2784,794.9817,790.14655,807.8755
814.7253,796.5934,788.1319,810.293
815.12823,804.65204,789.7436,800.2198
795.78754,800.2198,789.7436,792.96704
784.10254,784.90845,786.1172,795.38464
790.14655,787.326,786.9231,799.011
790.9524,792.96704,790.54944,798.20514
801.4286,790.14655,788.5348,798.60803
806.6667,784.90845,782.8938,799.41394
809.89014,792.1612,789.7436,796.5934
810.696,792.96704,792.96704,796.5934
799.011,786.1172,786.9231,796.99634
786.9231,784.10254,780.87915,794.17584
782.49084,783.69965,779.67035,792.96704
792.5641,788.5348,785.31134,788.93774
802.23444,790.9524,790.14655,784.10254
792.1612,782.49084,788.5348,780.07324
788.1319,789.7436,783.2967,776.04395
786.9231,794.57874,784.90845,779.67035
777.6557,788.1319,787.326,783.2967
788.1319,788.93774,788.1319,787.326
797.8022,790.9524,786.9231,789.7436
789.34064,790.9524,782.0879,781.28204
790.54944,794.17584,782.49084,784.10254
806.6667,791.3553,785.31134,798.20514
807.8755,785.31134,787.72894,802.23444
797.3993,789.7436,786.52014,801.02563
794.9817,785.31134,781.685,794.57874
796.1905,782.8938,784.10254,794.9817
799.41394,785.31134,784.90845,792.96704
804.2491,785.31134,785.7143,792.96704
788.1319,793.36993,787.72894,797.3993
783.69965,794.57874,787.326,791.75824
792.1612,789.34064,785.31134,783.69965
788.1319,790.14655,786.1172,787.72894
789.34064,794.17584,796.1905,797.8022
798.20514,793.36993,801.4286,804.65204
797.3993,791.3553,797.8022,796.5934
800.2198,794.9817,797.3993,790.54944
805.4579,788.5348,789.7436,801.02563
790.54944,786.9231,788.5348,793.36993
801.4286,796.99634,795.78754,800.6227
795.38464,792.96704,797.8022,809.0842
804.2491,790.9524,796.5934,803.8461
777.25275,789.7436,790.9524,783.69965
787.72894,790.9524,795.38464,794.9817
796.99634,790.54944,798.60803,796.99634
786.52014,788.5348,798.60803,789.7436
778.86444,783.2967,792.96704,784.90845
782.8938,784.90845,794.57874,790.14655
789.34064,796.5934,795.78754,797.8022
800.2198,796.99634,795.78754,803.0403
805.8608,793.36993,792.5641,798.60803
794.57874,789.7436,783.69965,788.1319
795.38464,781.28204,784.10254,786.9231
802.23444,786.1172,789.7436,786.9231
795.78754,790.14655,794.57874,790.14655
800.2198,786.52014,794.9817,791.3553
803.44324,783.2967,791.75824,790.54944
805.8608,782.8938,790.9524,795.38464
812.71063,784.5055,787.72894,792.96704
809.4872,788.1319,788.1319,791.75824
802.6374,797.8022,790.14655,800.6227
801.4286,794.57874,786.9231,795.78754
800.2198,780.07324,783.69965,784.5055
788.93774,777.25275,784.5055,781.685
787.72894,788.1319,792.96704,786.52014
794.57874,792.96704,796.1905,792.1612
799.41394,783.2967,787.326,788.93774
801.02563,782.8938,787.326,794.9817
793.7729,785.7143,789.7436,806.26373
777.6557,784.10254,789.7436,781.685
771.6117,776.4469,786.1172,777.25275
787.326,780.4762,783.69965,783.69965
789.7436,785.7143,791.3553,793.36993
786.1172,781.685,794.9817,791.75824
786.9231,782.49084,791.3553,787.326
799.81683,783.2967,792.1612,784.10254
782.0879,784.5055,788.5348,790.54944
794.9817,782.8938,786.52014,778.86444
791.3553,786.1172,788.93774,799.011
796.99634,791.75824,792.96704,798.20514
807.47253,793.36993,790.9524,794.9817
806.26373,792.1612,790.9524,795.38464
812.3077,790.9524,787.326,788.93774
805.05493,789.34064,786.52014,783.69965
790.54944,799.011,794.17584,790.54944
788.5348,801.8315,796.1905,796.99634
795.38464,789.7436,790.9524,799.81683
796.99634,791.3553,792.5641,805.4579
799.41394,797.8022,793.7729,803.8461
806.6667,796.1905,790.9524,805.05493
782.8938,790.54944,791.3553,799.011
772.4176,790.14655,792.1612,789.34064
794.57874,793.7729,786.9231,796.99634
794.57874,795.38464,784.5055,803.8461
794.9817,795.78754,787.72894,800.6227
809.4872,790.54944,785.7143,794.17584
807.0696,796.1905,782.49084,792.1612
801.8315,796.5934,783.2967,790.9524
799.41394,789.34064,784.90845,786.52014
800.2198,786.52014,782.0879,783.2967
803.44324,796.5934,794.57874,794.57874
797.8022,792.1612,786.52014,792.96704
801.8315,795.38464,792.5641,793.36993
798.20514,790.9524,784.90845,790.14655
811.50183,792.1612,788.1319,792.5641
793.36993,792.1612,788.93774,793.36993
784.90845,792.5641,793.36993,801.4286
800.6227,795.38464,791.75824,799.81683
788.1319,798.60803,786.9231,787.72894
782.8938,795.38464,785.31134,786.9231
796.1905,792.96704,787.72894,794.9817
803.8461,792.96704,793.7729,794.17584
796.5934,786.1172,789.7436,790.14655
779.67035,785.31134,785.7143,797.8022
781.28204,788.1319,787.72894,794.57874
786.9231,788.5348,786.9231,785.31134
783.2967,791.75824,787.72894,793.36993
788.1319,793.36993,789.7436,802.23444
796.99634,790.54944,788.5348,805.4579
794.17584,784.90845,787.72894,802.6374
790.54944,787.72894,786.52014,798.20514
794.57874,786.52014,784.10254,801.4286
807.0696,786.1172,783.69965,803.8461
816.337,795.38464,784.5055,802.6374
818.7546,792.96704,782.8938,801.8315
809.0842,791.3553,787.326,802.6374
793.7729,790.54944,790.9524,802.23444
792.1612,788.93774,789.34064,799.81683
803.8461,794.57874,786.52014,801.4286
797.8022,791.75824,782.8938,794.17584
791.3553,788.5348,786.9231,787.72894
793.36993,788.93774,790.9524,795.78754
786.1172,789.7436,788.1319,792.1612
792.5641,792.5641,784.10254,791.3553
798.20514,789.34064,785.31134,796.5934
801.02563,791.75824,793.7729,800.6227
807.0696,796.5934,791.75824,802.6374
801.02563,799.41394,786.52014,799.011
801.02563,800.6227,788.93774,793.7729
796.1905,793.36993,787.72894,786.1172
795.78754,788.93774,788.93774,791.75824
803.0403,788.1319,791.3553,792.1612
788.93774,791.3553,794.9817,786.52014
779.67035,790.54944,795.78754,790.9524
786.1172,794.57874,793.7729,798.60803
795.38464,794.9817,794.57874,800.6227
792.96704,786.1172,792.96704,793.7729
784.10254,786.1172,787.72894,794.17584
788.5348,786.52014,786.1172,796.5934
790.9524,786.1172,784.10254,795.38464
788.93774,785.31134,784.10254,799.41394
791.75824,782.8938,788.93774,798.20514
796.5934,783.2967,790.9524,796.1905
796.5934,778.86444,787.72894,790.54944
795.38464,778.0586,780.07324,790.14655
793.7729,780.4762,779.2674,797.3993
794.9817,784.5055,786.1172,802.23444
807.8755,784.5055,788.1319,809.89014
801.4286,780.87915,787.72894,808.2784
786.52014,782.0879,787.72894,798.20514
798.20514,784.90845,788.93774,794.17584
801.02563,782.49084,790.14655,796.1905
796.99634,784.10254,791.75824,793.36993
798.20514,781.685,788.93774,789.34064
804.2491,780.87915,789.34064,788.1319
813.1135,786.52014,791.75824,789.34064
804.2491,786.52014,793.36993,791.75824
787.326,787.72894,794.17584,795.38464
783.69965,790.54944,788.93774,789.34064
777.6557,786.52014,783.2967,776.8498
773.6264,781.28204,783.69965,778.46155
777.6557,779.67035,786.1172,779.2674
780.87915,780.87915,788.93774,786.52014
773.6264,782.0879,786.52014,786.1172
774.0293,777.6557,781.685,774.83514
774.0293,780.07324,788.1319,789.7436
784.90845,786.9231,792.5641,793.36993
799.81683,791.3553,787.326,786.9231
801.4286,790.14655,784.5055,789.7436
807.8755,788.1319,784.5055,788.5348
799.41394,797.8022,787.72894,789.7436
796.1905,800.2198,791.3553,793.36993
809.89014,786.1172,788.5348,796.1905
816.7399,782.8938,788.93774,791.3553
799.011,785.31134,788.5348,786.52014
783.69965,787.326,782.8938,782.0879
794.9817,787.72894,781.685,782.0879
805.8608,788.1319,784.90845,787.326
813.1135,790.54944,782.0879,782.0879
810.696,786.9231,783.69965,783.2967
799.81683,788.5348,778.46155,789.34064
789.34064,782.49084,778.86444,793.7729
777.25275,789.7436,791.75824,780.87915
787.326,794.17584,792.1612,793.7729
778.86444,778.0586,781.28204,772.01465
786.52014,787.326,786.52014,784.90845
785.7143,780.87915,789.7436,786.1172
785.31134,786.9231,784.10254,777.6557
782.49084,784.10254,791.3553,785.31134
782.49084,786.9231,782.49084,782.49084
784.10254,788.93774,777.6557,778.86444
798.20514,793.36993,790.54944,799.41394
793.7729,792.5641,783.2967,789.7436
803.0403,786.1172,790.14655,792.1612
796.99634,784.10254,790.54944,786.9231
780.4762,786.52014,789.7436,788.1319
786.52014,785.31134,789.34064,794.57874
792.5641,779.2674,789.34064,792.1612
789.7436,775.2381,788.5348,790.54944
792.1612,780.87915,790.14655,793.36993
779.67035,782.8938,784.90845,787.326
782.0879,781.685,786.1172,791.3553
803.8461,784.10254,791.75824,796.99634
800.2198,784.90845,785.31134,801.8315
803.44324,783.69965,781.685,801.4286
804.2491,784.5055,788.93774,797.8022
814.3223,788.93774,786.9231,801.4286
820.3663,791.3553,792.5641,804.65204
814.3223,784.90845,791.75824,800.2198
798.20514,780.07324,786.9231,791.3553
785.7143,777.6557,782.0879,790.54944
790.9524,776.4469,782.49084,790.14655
789.7436,776.4469,784.90845,789.34064
791.75824,779.67035,786.52014,798.20514
803.0403,792.96704,788.93774,800.2198
800.6227,796.1905,789.34064,797.3993
790.14655,789.34064,790.14655,800.2198
787.326,792.5641,795.78754,800.2198
782.8938,799.011,801.02563,800.2198
788.5348,786.1172,798.20514,799.81683
796.5934,777.25275,790.54944,798.20514
797.8022,784.90845,783.2967,807.0696
792.5641,785.7143,784.5055,809.4872
792.1612,783.2967,790.14655,799.41394
798.20514,785.31134,790.54944,794.57874
799.41394,786.9231,788.1319,791.75824
790.9524,786.1172,785.7143,784.5055
796.1905,788.1319,786.9231,794.57874
815.5311,794.57874,791.75824,810.696
816.7399,801.8315,794.17584,808.68134
799.41394,803.8461,795.38464,803.44324
791.3553,791.75824,792.1612,794.17584
792.5641,783.2967,788.5348,792.1612
792.96704,788.93774,791.3553,796.99634
794.17584,791.75824,792.5641,805.05493
803.0403,792.1612,792.5641,802.6374
803.0403,790.54944,790.9524,792.5641
804.65204,786.1172,791.3553,792.1612
793.7729,797.3993,792.96704,792.96704
804.2491,788.5348,793.7729,792.96704
792.1612,796.99634,790.54944,792.1612
785.7143,797.8022,788.93774,785.7143
796.5934,803.44324,791.3553,794.57874
806.26373,811.9048,796.99634,802.23444
803.44324,799.41394,797.3993,796.5934
799.81683,806.6667,799.81683,797.3993
802.6374,799.011,794.57874,798.20514
801.8315,796.1905,792.96704,793.36993
810.293,801.02563,793.36993,790.54944
815.12823,798.60803,794.57874,799.011
817.5458,793.7729,789.34064,801.4286
818.3516,796.1905,788.1319,800.6227
805.8608,792.96704,788.5348,803.8461
793.7729,791.75824,790.54944,806.6667
786.9231,794.9817,790.54944,801.02563
790.9524,788.1319,788.5348,801.02563
793.7729,783.69965,790.54944,801.8315
794.9817,784.10254,791.3553,790.54944
798.60803,791.75824,790.14655,787.326
805.05493,799.81683,787.326,797.3993
807.47253,797.8022,786.1172,804.2491
795.78754,793.36993,785.31134,801.8315
788.93774,790.54944,783.2967,788.1319
803.0403,795.38464,786.52014,788.1319
803.44324,803.0403,789.34064,796.99634
797.8022,803.8461,783.2967,794.9817
799.011,807.0696,778.0586,795.78754
799.81683,803.44324,779.2674,804.65204
796.99634,793.7729,783.69965,802.23444
786.1172,792.96704,788.5348,788.5348
808.68134,797.8022,786.9231,789.34064
787.326,794.17584,778.0586,788.1319
799.81683,799.81683,791.3553,786.52014
790.54944,793.7729,778.46155,788.93774
813.1135,790.14655,782.8938,793.36993
808.68134,790.9524,790.54944,791.3553
789.7436,792.1612,793.36993,783.69965
786.9231,794.57874,788.93774,780.07324
796.1905,802.23444,788.5348,780.07324
801.4286,799.81683,790.9524,788.5348
803.0403,786.1172,786.9231,796.5934
799.81683,785.31134,781.28204,790.54944
791.75824,787.326,779.67035,783.69965
804.2491,784.90845,782.49084,791.3553
809.89014,789.7436,789.7436,796.5934
807.47253,788.93774,791.75824,795.78754
807.0696,786.1172,785.7143,795.38464
797.3993,789.7436,780.4762,794.57874
799.011,784.90845,780.07324,796.1905
805.05493,784.10254,785.7143,803.8461
803.0403,793.7729,787.326,801.4286
796.99634,788.93774,783.69965,785.7143
792.5641,786.1172,786.1172,790.14655
792.1612,780.07324,782.49084,786.9231
799.41394,795.78754,789.34064,791.75824
806.26373,793.7729,788.5348,794.17584
792.1612,777.25275,782.0879,781.28204
798.20514,784.10254,787.326,789.34064
787.72894,780.07324,789.7436,790.9524
778.46155,788.5348,790.14655,792.5641
785.31134,788.1319,789.34064,792.96704
784.90845,783.2967,791.3553,793.7729
790.9524,794.9817,783.69965,790.14655
776.04395,788.93774,778.0586,779.2674
794.17584,781.28204,782.8938,788.1319
789.34064,788.1319,789.7436,790.14655
783.2967,776.8498,780.07324,781.28204
786.1172,784.5055,784.5055,786.1172
795.78754,786.9231,791.75824,795.38464
798.60803,788.93774,795.78754,805.8608
806.26373,790.54944,798.60803,807.0696
812.3077,789.34064,799.011,807.47253
809.0842,792.96704,793.7729,805.8608
814.7253,789.7436,791.3553,797.3993
809.89014,796.1905,796.5934,797.8022
797.3993,795.38464,795.38464,796.5934
811.50183,787.72894,790.14655,803.0403
796.99634,786.52014,786.52014,805.4579
778.46155,785.31134,794.17584,790.54944
782.0879,788.5348,802.6374,788.5348
777.25275,787.326,792.1612,790.54944
778.86444,779.67035,760.32965,785.7143
782.0879,774.43225,719.2308,787.326
784.5055,778.86444,681.3553,790.14655
795.78754,784.10254,649.92676,793.7729
792.96704,784.10254,619.304,790.14655
784.5055,784.90845,585.8608,786.52014
787.326,781.685,556.8498,784.10254
792.1612,780.07324,531.8681,782.8938
794.57874,781.685,511.3187,788.1319
789.34064,785.7143,495.6044,784.90845
781.685,792.5641,481.0989,778.46155
780.87915,788.5348,467.8022,782.8938
795.78754,786.1172,456.11722,789.7436
801.02563,788.5348,448.0586,784.90845
788.5348,789.7436,442.01465,790.54944
798.60803,792.1612,437.58243,795.78754
805.4579,789.34064,433.15018,788.5348
793.7729,792.96704,427.50916,787.72894
808.68134,793.7729,426.30035,799.41394
830.4396,789.34064,426.30035,813.1135
811.9048,788.5348,427.50916,809.89014
787.326,791.75824,424.68866,802.23444
793.7729,791.3553,418.24176,803.44324
806.26373,791.75824,416.63004,796.1905
802.23444,794.9817,422.27106,793.36993
791.3553,790.14655,423.88278,797.8022
789.7436,781.685,416.63004,791.75824
782.49084,779.2674,412.60074,788.5348
786.52014,786.1172,414.6154,794.17584
793.7729,794.57874,420.65933,802.23444
799.011,795.38464,429.12088,800.2198
801.02563,791.3553,434.35898,794.57874
796.5934,785.7143,426.30035,794.17584
791.3553,784.5055,418.64468,791.75824
790.54944,790.9524,421.06226,790.14655
784.5055,788.93774,421.06226,785.31134
783.69965,783.69965,419.45056,784.5055
789.34064,784.10254,417.83884,782.8938
801.4286,792.5641,420.65933,774.83514
821.5751,795.78754,428.71796,777.25275
806.26373,794.57874,434.35898,789.34064
778.86444,799.41394,435.16483,789.34064
779.2674,794.9817,440.40292,786.52014
780.87915,788.1319,441.2088,785.31134
793.36993,791.3553,446.04395,784.5055
798.20514,789.7436,454.10257,793.36993
792.5641,788.5348,452.89377,799.41394
796.5934,789.34064,456.52014,804.2491
799.41394,788.1319,462.56412,806.26373
790.54944,794.57874,481.90475,794.9817
790.14655,788.5348,479.48718,799.41394
790.9524,789.7436,480.69598,799.41394
789.7436,796.99634,482.71063,800.2198
792.96704,793.7729,473.84616,796.1905
789.7436,791.75824,481.0989,798.20514
793.7729,781.28204,481.90475,794.17584
802.23444,786.1172,491.17215,789.7436
790.14655,786.9231,498.02197,784.90845
781.28204,784.90845,497.61905,784.90845
800.2198,787.72894,502.85715,779.2674
792.1612,786.9231,508.9011,778.46155
787.72894,790.14655,510.1099,800.2198
796.5934,795.38464,512.52747,801.4286
794.17584,792.5641,516.9597,782.8938
790.54944,788.93774,523.00366,780.07324
786.9231,795.38464,533.8828,786.9231
781.685,796.1905,537.1062,788.93774
781.28204,791.75824,539.5238,788.5348
787.72894,788.93774,545.9707,792.96704
791.75824,786.52014,553.6264,803.44324
790.9524,788.93774,564.10254,799.011
805.4579,788.5348,571.75824,794.9817
795.38464,789.7436,576.5934,797.8022
776.4469,789.34064,577.3993,794.57874
794.9817,787.72894,582.23444,799.41394
800.2198,789.34064,590.293,803.8461
802.6374,790.54944,597.1429,803.44324
814.7253,788.93774,600.3663,802.6374
815.12823,789.34064,597.5458,801.4286
793.7729,781.28204,596.337,802.23444
785.31134,781.28204,602.381,794.9817
795.78754,785.7143,611.2454,794.57874
799.81683,788.93774,615.2747,799.81683
790.14655,790.14655,608.8278,797.3993
782.8938,783.69965,604.7985,795.38464
790.54944,789.34064,608.022,806.26373
783.69965,784.10254,601.5751,799.011
785.7143,786.1172,608.022,802.6374
817.9487,798.60803,586.26373,805.4579
793.7729,788.1319,595.9341,801.4286
807.8755,797.8022,574.17584,803.0403
790.9524,785.7143,536.30035,791.3553
797.8022,790.9524,564.5055,797.3993
793.7729,788.93774,531.06226,792.96704
792.96704,787.326,548.7912,794.57874
794.57874,789.7436,527.4359,795.78754
796.5934,796.5934,529.0476,798.60803
790.54944,797.8022,528.24176,800.2198
792.1612,790.9524,521.79486,797.3993
811.9048,793.36993,517.3626,796.5934
814.3223,788.5348,520.989,791.75824
819.9634,793.7729,529.45056,796.1905
811.0989,797.8022,531.06226,807.8755
782.49084,789.7436,534.68866,807.0696
786.1172,786.9231,533.47986,796.1905
794.9817,790.54944,533.8828,795.78754
790.9524,793.7729,543.95605,802.6374
794.57874,790.9524,543.95605,804.2491
799.41394,792.96704,545.56775,801.8315
798.60803,793.7729,544.35895,794.17584
796.1905,795.38464,543.1502,796.5934
798.20514,800.2198,552.4176,796.1905
783.2967,792.1612,555.2381,790.54944
777.25275,792.96704,558.0586,792.5641
794.17584,795.38464,563.2967,787.72894
801.4286,791.3553,565.31134,788.5348
808.68134,790.54944,565.7143,798.20514
810.696,790.54944,565.7143,803.44324
803.44324,791.75824,568.1319,803.44324
798.20514,787.326,569.7436,790.54944
796.1905,791.3553,572.1612,784.90845
805.05493,794.17584,589.4872,794.9817
801.02563,788.5348,592.71063,787.326
816.337,788.93774,597.9487,784.90845
807.0696,800.2198,583.0403,792.5641
817.9487,793.7729,605.2015,794.17584
828.4249,800.6227,612.0513,792.96704
826.8132,787.326,617.6923,783.69965
794.57874,774.43225,619.707,782.49084
790.14655,782.49084,618.9011,780.4762
794.57874,782.8938,619.707,777.6557
793.7729,785.31134,629.3773,781.28204
797.3993,790.54944,641.4652,788.1319
795.38464,785.7143,645.09155,795.78754
791.3553,780.87915,652.3443,792.1612
796.5934,790.54944,642.27106,792.1612
767.98535,779.67035,655.16486,788.5348
776.8498,791.3553,661.6117,789.7436
795.78754,793.36993,665.64105,783.2967
789.7436,783.69965,664.83514,785.7143
805.8608,793.36993,667.6557,802.23444
806.6667,787.72894,674.10254,807.47253
785.31134,778.86444,678.93774,792.96704
782.49084,782.8938,683.7729,783.2967
794.17584,786.52014,688.60803,788.5348
803.0403,787.72894,691.8315,790.54944
805.05493,791.75824,692.6374,785.7143
811.0989,795.38464,695.8608,780.4762
811.0989,797.3993,700.696,782.49084
796.1905,803.8461,709.15753,783.69965
788.1319,796.99634,709.5604,781.28204
787.326,789.34064,706.7399,782.49084
786.1172,787.326,714.7985,784.10254
796.5934,787.326,726.8865,786.9231
805.4579,790.54944,727.6923,788.93774
796.5934,786.52014,725.2747,796.1905
806.6667,786.1172,732.9304,800.6227
818.3516,788.1319,736.1539,797.8022
802.23444,793.7729,734.94507,799.011
807.8755,797.3993,742.1978,796.99634
806.26373,795.38464,746.63007,789.34064
796.5934,794.9817,744.61536,789.34064
799.81683,789.7436,749.0476,799.011
800.2198,786.52014,758.71796,799.41394
798.60803,786.9231,760.32965,793.7729
798.20514,792.96704,759.5238,792.1612
800.2198,796.5934,761.53845,795.78754
798.20514,794.17584,764.35895,794.9817
800.6227,796.5934,771.6117,800.6227
804.65204,798.20514,777.6557,800.2198
804.65204,792.96704,774.43225,794.17584
792.5641,790.9524,769.59705,793.7729
792.5641,789.7436,769.19415,796.5934
788.93774,792.96704,772.4176,798.20514
775.64105,791.75824,774.0293,794.57874
787.72894,783.69965,773.22345,783.69965
799.41394,783.69965,772.8205,785.7143
807.47253,785.31134,778.46155,786.1172
799.011,790.9524,783.69965,780.4762
785.31134,792.5641,786.1172,788.1319
794.17584,789.34064,785.7143,791.75824
798.60803,786.1172,784.10254,788.93774
801.4286,790.54944,785.7143,791.75824
809.4872,794.17584,788.93774,795.78754
801.4286,791.75824,790.14655,793.7729
786.52014,793.36993,789.7436,792.1612
789.7436,788.1319,785.31134,782.8938
790.14655,780.07324,788.93774,779.2674
779.67035,779.2674,794.9817,785.7143
786.9231,780.87915,797.3993,791.3553
794.57874,789.34064,796.5934,788.93774
793.36993,793.36993,788.93774,787.326
792.96704,792.5641,790.54944,792.1612
790.9524,787.326,797.3993,798.20514
780.07324,791.3553,801.4286,794.17584
785.7143,789.7436,799.011,781.28204
817.5458,792.96704,801.8315,792.1612
817.1429,792.5641,805.8608,806.6667
798.60803,787.72894,807.47253,806.6667
799.81683,791.3553,804.2491,800.2198
797.3993,791.3553,797.8022,790.54944
784.90845,787.326,803.8461,805.4579
800.2198,792.5641,793.7729,789.7436
801.8315,789.7436,796.5934,794.17584
797.3993,781.685,800.6227,792.96704
791.3553,780.07324,803.0403,790.54944
797.8022,782.8938,804.2491,792.96704
795.78754,783.2967,802.6374,794.9817
794.57874,784.5055,807.0696,797.3993
797.3993,791.75824,813.5165,805.8608
786.9231,786.9231,813.5165,801.4286
796.99634,780.4762,811.0989,809.4872
806.6667,784.5055,814.3223,816.337
794.57874,783.2967,818.3516,794.9817
784.90845,780.87915,817.5458,786.1172
779.67035,778.86444,813.1135,783.2967
787.326,784.5055,811.50183,784.5055
799.41394,788.1319,808.2784,789.7436
798.20514,788.5348,811.0989,795.38464
806.6667,782.49084,811.9048,796.99634
802.23444,786.9231,814.7253,794.57874
790.14655,788.1319,819.15753,790.14655
794.9817,787.326,805.8608,791.3553
781.685,777.6557,820.3663,784.10254
779.2674,772.8205,818.3516,780.07324
768.7912,779.2674,819.5604,777.25275
772.4176,789.34064,820.7692,784.90845
787.72894,794.57874,819.5604,795.38464
787.72894,788.5348,818.3516,791.3553
782.8938,783.2967,824.7985,785.31134
787.72894,786.1172,829.6337,785.31134
783.69965,786.9231,826.4103,784.5055
781.28204,790.54944,824.3956,789.7436
796.99634,794.17584,824.3956,790.9524
794.57874,789.34064,829.2308,790.14655
784.90845,784.10254,831.6484,787.326
789.34064,787.326,829.6337,782.8938
800.6227,785.31134,827.2161,779.2674
803.0403,792.1612,832.8571,785.7143
793.36993,801.02563,844.1392,806.26373
786.9231,792.96704,849.7802,804.65204
790.14655,794.17584,852.6007,801.8315
802.6374,805.8608,856.63007,814.7253
809.0842,798.20514,858.6447,811.50183
805.05493,789.7436,860.65936,808.2784
801.02563,797.3993,862.27106,812.3077
795.78754,791.75824,861.8681,806.26373
793.7729,776.8498,859.85345,797.3993
798.20514,778.86444,859.0476,792.5641
808.2784,782.49084,866.30035,793.36993
809.4872,787.326,874.7619,796.99634
779.2674,789.34064,880,797.8022
776.4469,790.14655,882.01465,799.81683
788.5348,792.96704,882.8205,796.5934
781.28204,793.36993,888.0586,797.8022
794.57874,792.96704,893.69965,810.696
795.78754,795.38464,896.9231,810.293
792.96704,799.81683,900.14655,802.23444
799.81683,793.7729,906.1905,804.2491
803.44324,785.7143,909.011,812.3077
806.6667,784.5055,906.99634,802.23444
810.293,785.31134,909.81683,799.011
795.38464,787.326,910.6227,799.81683
786.52014,784.90845,905.78754,795.78754
799.011,785.7143,907.3993,794.17584
779.2674,782.49084,915.8608,781.685
794.57874,784.90845,915.4579,779.2674
802.23444,784.90845,910.2198,779.2674
789.7436,781.685,911.4286,784.10254
809.0842,790.54944,915.4579,786.52014
803.8461,787.326,930.3663,791.75824
791.75824,781.28204,936.0073,793.36993
795.38464,779.2674,936.8132,785.7143
786.1172,784.5055,941.6484,775.64105
779.2674,787.72894,949.707,782.0879
786.1172,785.7143,953.73627,793.7729
794.57874,786.1172,950.5128,797.3993
808.68134,788.93774,952.1245,785.31134
785.7143,788.5348,949.707,785.31134
809.0842,787.326,952.52747,786.1172
773.6264,787.326,950.5128,781.685
776.4469,793.36993,954.5421,784.5055
780.87915,791.3553,955.7509,790.14655
796.1905,786.52014,952.1245,791.75824
807.8755,788.1319,954.94507,792.5641
817.1429,792.5641,958.5714,798.60803
809.4872,786.52014,965.82416,797.3993
799.81683,784.90845,969.85345,797.8022
807.0696,792.5641,963.00366,794.57874
805.8608,796.99634,961.39197,792.1612
807.8755,799.41394,966.63007,794.9817
801.8315,796.1905,972.27106,798.60803
796.5934,787.72894,973.8828,788.5348
800.6227,786.9231,970.2564,777.6557
794.17584,784.5055,962.1978,784.10254
792.5641,779.67035,962.1978,795.38464
803.44324,792.1612,968.6447,802.6374
803.0403,794.17584,965.0183,792.96704
796.5934,787.72894,958.97437,790.54944
793.36993,788.1319,963.4066,793.7729
797.8022,787.72894,965.82416,792.1612
795.78754,784.10254,970.65936,792.5641
780.4762,786.9231,971.4652,783.69965
777.6557,788.93774,964.61536,785.7143
785.7143,790.14655,963.8095,790.14655
792.1612,799.011,971.8681,788.1319
799.41394,801.4286,976.30035,790.14655
800.2198,798.20514,971.06226,785.7143
785.7143,795.78754,967.03296,782.8938
784.90845,788.93774,963.8095,779.67035
790.14655,786.9231,960.989,784.10254
803.8461,797.3993,966.63007,795.78754
819.9634,799.011,971.4652,804.2491
819.9634,796.1905,965.42126,803.0403
820.7692,802.6374,963.00366,794.9817
817.9487,795.78754,965.82416,791.3553
819.9634,789.7436,965.42126,799.81683
820.7692,799.011,963.8095,801.8315
806.26373,795.38464,960.58606,789.34064
799.011,787.326,955.34796,794.17584
797.8022,790.14655,952.9304,796.5934
794.17584,789.34064,954.94507,792.1612
790.54944,788.93774,957.3626,795.78754
782.8938,791.3553,960.989,801.8315
786.52014,791.3553,957.76556,806.6667
798.60803,790.14655,953.3333,802.6374
801.4286,794.9817,955.7509,800.6227
799.41394,794.17584,955.34796,801.8315
791.3553,784.10254,945.6777,794.9817
804.2491,788.1319,947.28937,798.60803
804.65204,791.3553,952.52747,803.0403
793.36993,783.2967,948.0952,802.6374
789.7436,780.07324,947.28937,802.6374
789.7436,783.2967,947.28937,801.4286
793.7729,787.72894,944.87177,796.1905
799.81683,788.5348,944.4689,794.57874
807.47253,790.9524,947.28937,797.3993
802.6374,793.36993,946.8865,790.9524
796.5934,791.75824,945.2747,797.3993
804.65204,791.3553,942.4542,798.20514
805.8608,791.3553,939.6337,778.46155
803.8461,798.60803,941.2454,779.67035
800.2198,795.38464,945.2747,788.93774
805.05493,792.1612,947.28937,788.93774
805.4579,794.17584,947.28937,792.1612
805.05493,790.9524,942.4542,790.54944
818.3516,799.41394,942.4542,794.9817
822.7839,799.41394,944.87177,802.23444
807.0696,797.3993,939.2308,796.1905
797.8022,800.2198,935.6044,792.96704
806.6667,796.99634,931.978,792.5641
799.011,799.41394,933.1868,793.7729
792.96704,800.6227,935.2015,796.1905
798.60803,785.7143,925.9341,807.8755
792.5641,795.78754,931.978,797.8022
802.23444,784.5055,927.5458,814.7253
802.23444,792.5641,930.3663,803.0403
809.89014,799.41394,931.1722,795.78754
804.2491,797.8022,934.7985,796.99634
819.5604,795.78754,929.5604,801.8315
826.0073,792.5641,922.71063,801.8315
819.5604,789.7436,915.05493,794.17584
799.41394,792.1612,911.02563,782.8938
796.99634,779.2674,910.2198,773.22345
793.36993,789.34064,912.23444,778.46155
805.4579,780.4762,906.5934,768.3883
779.67035,779.2674,906.5934,778.46155
791.3553,782.49084,906.5934,773.6264
786.1172,779.67035,901.3553,778.46155
784.10254,782.0879,896.52014,776.4469
785.31134,782.0879,893.2967,774.83514
782.8938,778.86444,894.90845,772.01465
779.2674,782.8938,903.7729,773.6264
780.87915,784.5055,908.60803,778.0586
781.685,781.28204,900.9524,771.2088
785.7143,779.2674,894.10254,768.3883
788.93774,777.6557,896.9231,772.8205
787.72894,780.4762,900.14655,776.4469
788.93774,781.28204,900.14655,780.87915
798.20514,780.87915,895.7143,786.1172
796.1905,783.69965,895.31134,793.36993
781.28204,784.5055,898.5348,788.5348
804.2491,785.31134,901.3553,788.93774
811.9048,782.0879,901.3553,794.57874
795.38464,787.326,898.93774,790.14655
793.36993,790.9524,896.9231,791.75824
789.7436,786.1172,894.5055,792.96704
793.36993,784.5055,896.1172,794.17584
797.3993,781.685,900.14655,801.02563
796.1905,788.1319,901.75824,804.2491
794.57874,788.1319,899.7436,795.78754
797.3993,779.2674,892.49084,794.57874
803.8461,781.685,888.46155,800.2198
803.44324,786.9231,894.90845,796.1905
797.8022,784.10254,894.5055,788.93774
803.8461,786.9231,893.69965,794.9817
798.20514,791.3553,897.72894,801.4286
788.1319,787.326,893.69965,795.78754
793.7729,787.326,889.2674,792.5641
790.14655,789.34064,888.46155,790.9524
776.4469,788.93774,888.46155,784.5055
783.69965,790.9524,888.0586,786.52014
799.81683,791.3553,888.0586,793.36993
801.4286,788.93774,890.87915,796.99634
786.52014,787.326,892.0879,792.96704
788.93774,788.5348,889.2674,792.96704
801.8315,788.5348,882.8205,799.011
796.5934,788.93774,883.6264,797.3993
787.72894,788.93774,890.07324,796.1905
792.5641,789.34064,891.685,800.2198
798.20514,795.38464,887.6557,800.2198
799.011,797.3993,879.19415,799.41394
789.7436,793.36993,875.9707,799.81683
785.31134,796.5934,881.6117,799.011
785.31134,794.17584,884.83514,799.41394
785.7143,793.36993,883.6264,802.6374
798.60803,793.7729,883.6264,806.6667
807.0696,785.7143,879.19415,808.2784
802.23444,786.52014,877.5824,808.2784
797.3993,787.72894,880.40295,795.78754
796.1905,787.72894,880,794.57874
789.34064,791.3553,877.98535,798.60803
793.36993,788.5348,873.1502,794.57874
801.02563,785.31134,873.5531,804.65204
811.9048,788.1319,877.5824,801.02563
807.47253,789.7436,876.77655,784.10254
780.07324,786.1172,871.53845,777.6557
772.01465,782.49084,865.09155,778.86444
778.86444,786.9231,863.47986,786.1172
792.1612,791.3553,866.30035,791.75824
801.4286,794.17584,871.13556,792.5641
809.0842,792.5641,873.1502,794.57874
798.20514,792.1612,869.5238,796.5934
801.4286,799.41394,871.13556,795.38464
788.1319,795.78754,865.89746,792.5641
798.60803,801.02563,873.5531,801.02563
789.34064,794.17584,874.35895,799.011
795.38464,798.20514,876.77655,799.41394
800.6227,801.02563,875.9707,806.26373
803.0403,792.96704,872.74725,802.6374
803.0403,793.36993,865.09155,799.011
796.1905,791.3553,862.674,798.60803
786.52014,784.90845,862.27106,793.36993
790.54944,783.2967,861.4652,789.7436
799.81683,791.3553,863.8828,792.5641
800.2198,798.60803,866.30035,800.6227
800.6227,794.57874,863.0769,802.23444
799.81683,794.9817,862.674,799.41394
813.91943,796.1905,867.50916,808.68134
814.3223,799.41394,867.50916,816.7399
799.011,797.8022,865.4945,811.50183
793.36993,792.5641,860.65936,800.6227
782.49084,788.1319,856.63007,779.67035
779.2674,788.1319,859.0476,776.4469
777.25275,789.34064,861.8681,782.8938
776.4469,788.5348,865.09155,783.2967
778.46155,792.5641,865.09155,788.5348
786.9231,789.7436,859.85345,787.72894
797.8022,788.1319,858.24176,789.7436
802.6374,792.96704,862.27106,794.57874
803.0403,790.54944,866.7033,796.5934
800.2198,794.17584,865.09155,799.81683
801.4286,793.7729,855.82416,796.1905
802.23444,787.326,852.6007,796.1905
790.14655,792.1612,856.2271,801.8315
787.326,799.81683,858.24176,799.81683
786.1172,801.8315,859.45056,796.5934
776.8498,795.38464,854.21246,806.26373
785.31134,789.34064,848.97437,804.65204
799.011,791.75824,844.94507,786.1172
804.2491,787.326,842.52747,776.04395
792.96704,796.99634,851.39197,787.72894
803.0403,788.1319,848.1685,779.67035
792.96704,785.7143,850.989,786.52014
784.90845,779.67035,849.3773,790.14655
791.3553,792.5641,851.79486,787.326
782.49084,778.0586,842.52747,791.3553
790.54944,786.52014,838.0952,793.36993
803.44324,793.7729,842.1245,793.36993
790.54944,788.93774,846.1539,788.5348
781.28204,791.3553,850.18317,792.96704
778.0586,796.1905,841.31866,783.69965
774.83514,791.3553,835.6777,782.8938
780.4762,791.3553,837.6923,782.49084
786.52014,799.011,849.3773,789.7436
780.4762,799.011,840.5128,780.4762
774.43225,793.36993,841.7216,780.07324
772.01465,774.0293,840.5128,776.04395
777.6557,776.8498,841.31866,778.0586
779.67035,791.3553,838.49817,788.1319
779.2674,788.93774,839.707,788.1319
782.49084,781.685,844.1392,794.9817
784.10254,784.90845,842.1245,790.54944
796.1905,792.5641,841.7216,781.685
799.41394,790.14655,842.1245,785.7143
794.57874,786.9231,841.7216,783.69965
798.20514,792.1612,842.1245,780.87915
789.7436,799.81683,840.10986,791.3553
782.49084,797.8022,837.28937,791.75824
776.8498,791.3553,838.0952,782.8938
784.5055,793.36993,844.1392,790.9524
796.5934,793.7729,840.9158,788.5348
789.34064,794.57874,844.94507,796.5934
791.75824,786.52014,836.08057,781.28204
787.72894,786.1172,838.0952,787.72894
793.36993,790.9524,844.1392,790.14655
788.5348,786.52014,843.3333,788.1319
796.99634,788.1319,843.3333,796.1905
802.23444,788.5348,838.9011,797.3993
799.81683,791.3553,835.2747,803.44324
797.8022,789.34064,833.663,807.8755
789.34064,782.49084,835.6777,789.34064
794.9817,783.2967,836.8865,786.9231
794.17584,783.2967,834.4689,791.3553
787.326,785.7143,835.2747,791.3553
800.6227,790.9524,838.9011,795.38464
806.26373,788.93774,838.49817,794.57874
791.75824,790.9524,836.8865,792.5641
781.28204,794.17584,830.84247,789.7436
787.72894,786.1172,828.4249,784.90845
789.34064,786.52014,832.0513,786.9231
794.9817,792.96704,839.707,790.9524
798.20514,786.9231,840.9158,795.78754
802.6374,777.25275,835.6777,796.99634
792.96704,786.1172,831.6484,785.7143
790.9524,797.8022,831.6484,780.4762
798.60803,795.78754,836.8865,790.9524
790.9524,791.75824,838.49817,788.93774
787.326,793.7729,837.6923,785.7143
788.1319,792.96704,833.2601,788.1319
791.75824,792.1612,833.663,788.93774
791.3553,796.1905,833.2601,795.38464
797.3993,794.57874,834.0659,797.8022
791.75824,790.9524,835.6777,787.72894
776.4469,788.5348,830.4396,780.07324
785.31134,784.10254,832.4542,788.5348
796.1905,787.72894,835.6777,793.36993
797.8022,791.3553,836.8865,796.99634
796.5934,792.96704,836.4835,799.41394
806.26373,795.78754,834.87177,801.4286
817.9487,792.1612,831.6484,805.05493
805.8608,788.1319,835.6777,803.44324
788.1319,786.9231,838.49817,796.5934
791.75824,783.69965,837.28937,802.23444
799.81683,781.685,834.4689,802.23444
793.7729,788.93774,827.619,796.5934
798.60803,796.5934,826.4103,799.81683
803.8461,790.54944,827.2161,805.05493
786.52014,788.1319,827.619,800.6227
787.72894,789.7436,828.8278,794.17584
790.54944,790.14655,828.4249,799.011
788.1319,791.75824,828.022,796.1905
796.99634,792.5641,830.4396,788.93774
799.81683,791.3553,831.6484,794.57874
796.5934,793.36993,831.6484,797.8022
800.6227,794.9817,830.0366,795.38464
803.0403,794.57874,834.4689,799.81683
801.8315,795.38464,836.4835,799.81683
816.7399,789.34064,831.6484,795.78754
816.337,780.4762,825.6044,800.2198
794.17584,782.49084,821.5751,797.3993
791.3553,783.2967,824.7985,796.5934
791.75824,776.4469,825.6044,792.5641
781.28204,778.46155,826.4103,791.75824
783.69965,786.52014,826.4103,804.65204
796.1905,788.5348,820.7692,808.2784
807.8755,792.1612,821.978,807.8755
807.8755,793.7729,833.663,808.2784
801.02563,788.5348,834.0659,799.81683
798.20514,794.9817,830.84247,799.41394
804.65204,791.3553,828.4249,805.05493
804.2491,779.67035,825.2015,810.293
803.0403,788.1319,823.5897,805.4579
803.0403,789.34064,824.3956,793.7729
795.38464,785.7143,828.022,807.47253
791.75824,791.3553,829.6337,811.9048
784.10254,784.10254,823.9927,788.93774
783.2967,783.69965,824.7985,786.9231
801.8315,794.17584,827.619,794.57874
801.4286,794.57874,821.1722,796.99634
805.05493,791.3553,815.5311,798.60803
801.02563,790.14655,813.5165,786.1172
794.57874,786.1172,815.12823,788.5348
803.8461,778.46155,812.3077,794.17584
787.326,773.22345,810.696,785.7143
778.46155,778.0586,811.50183,786.52014
782.8938,787.72894,807.0696,788.93774
789.7436,790.54944,808.2784,787.72894
790.54944,784.90845,815.12823,783.2967
783.69965,780.87915,813.1135,784.90845
784.5055,783.2967,812.3077,784.10254
788.93774,780.87915,809.89014,780.07324
788.5348,783.2967,811.9048,789.34064
788.5348,796.1905,818.7546,795.78754
795.78754,786.1172,815.5311,793.36993
788.93774,776.04395,809.89014,786.52014
788.1319,779.2674,805.05493,784.10254
806.6667,789.34064,812.71063,799.41394
805.4579,794.9817,824.3956,809.4872
787.72894,788.5348,819.5604,797.3993
783.2967,786.52014,811.0989,784.5055
789.7436,781.28204,809.89014,788.5348
792.5641,778.0586,810.696,783.69965
788.93774,778.46155,807.8755,775.2381
789.34064,776.4469,809.4872,782.49084
799.011,786.9231,805.4579,774.43225
799.011,782.0879,804.2491,786.52014
795.38464,779.67035,805.8608,791.75824
805.4579,786.1172,811.0989,794.57874
801.02563,793.36993,817.9487,788.93774
808.2784,798.20514,819.9634,788.93774
811.9048,787.326,815.5311,790.9524
795.78754,779.67035,812.3077,792.1612
801.4286,784.90845,813.5165,798.20514
808.68134,786.1172,813.91943,799.81683
797.3993,779.2674,813.91943,801.4286
796.99634,779.67035,812.71063,796.99634
803.44324,783.2967,812.3077,791.3553
798.20514,780.4762,817.5458,796.1905
795.78754,776.8498,821.1722,800.2198
807.0696,772.4176,817.5458,804.2491
808.2784,772.8205,817.5458,803.44324
796.99634,777.25275,821.978,800.2198
805.05493,777.6557,818.3516,802.6374
823.9927,780.4762,814.3223,803.8461
828.4249,784.90845,814.3223,804.2491
814.7253,783.69965,811.50183,804.2491
793.36993,784.90845,810.293,799.011
782.8938,783.2967,809.4872,797.3993
789.7436,784.5055,811.0989,803.0403
791.75824,788.5348,814.7253,798.60803
795.38464,787.326,815.12823,795.78754
793.36993,789.7436,815.9341,794.9817
794.17584,791.75824,815.9341,801.02563
797.8022,793.7729,815.12823,800.2198
792.96704,786.52014,816.337,792.96704
796.1905,778.0586,812.71063,791.3553
799.41394,779.2674,809.89014,788.93774
794.57874,784.5055,814.7253,800.2198
801.4286,782.0879,816.337,801.02563
803.8461,789.34064,813.91943,800.6227
792.96704,783.69965,810.696,793.7729
801.8315,777.6557,809.0842,796.99634
807.8755,786.9231,809.4872,799.81683
799.011,782.0879,815.9341,797.8022
807.47253,781.685,812.3077,796.5934
815.9341,780.07324,806.26373,794.17584
809.0842,782.49084,802.6374,791.75824
789.7436,788.5348,804.2491,794.57874
788.93774,784.5055,803.8461,796.1905
796.1905,780.07324,805.05493,791.3553
792.96704,784.10254,810.696,792.96704
787.72894,782.8938,807.8755,792.5641
790.54944,791.3553,805.8608,791.75824
802.23444,793.7729,809.4872,799.41394
796.5934,785.7143,810.293,796.99634
790.54944,781.685,804.65204,784.90845
792.96704,780.87915,801.4286,783.69965
794.17584,787.72894,805.8608,782.49084
806.26373,785.7143,807.0696,776.04395
803.8461,782.0879,805.8608,782.49084
787.326,782.8938,808.2784,795.38464
787.326,786.1172,810.696,798.60803
794.57874,785.31134,809.4872,795.78754
799.81683,785.31134,810.696,797.8022
813.91943,792.5641,814.7253,800.2198
816.7399,780.87915,811.50183,793.36993
799.011,770.80585,807.47253,781.28204
782.49084,784.10254,808.2784,778.46155
783.69965,788.5348,809.89014,780.4762
786.9231,784.90845,808.2784,778.46155
781.28204,784.10254,805.8608,775.64105
789.34064,782.49084,803.0403,777.6557
800.2198,788.1319,805.4579,780.4762
792.5641,789.7436,808.68134,784.5055
791.75824,786.52014,806.6667,789.7436
787.72894,786.1172,803.0403,776.8498
786.1172,791.3553,800.6227,774.43225
792.1612,788.1319,804.65204,784.90845
801.02563,784.90845,807.8755,794.9817
798.60803,787.72894,805.05493,800.2198
789.34064,785.7143,808.68134,799.011
790.14655,789.34064,813.91943,804.65204
786.52014,789.7436,805.8608,799.81683
784.90845,786.9231,803.44324,792.5641
801.4286,790.9524,811.50183,798.20514
812.3077,792.5641,809.0842,798.60803
801.02563,792.1612,803.8461,791.75824
801.02563,792.1612,807.47253,782.0879
795.38464,788.1319,804.65204,784.10254
799.41394,792.5641,809.4872,785.31134
804.2491,789.34064,810.293,787.72894
793.7729,788.5348,803.8461,780.4762
788.1319,782.0879,795.38464,780.07324
792.1612,786.9231,801.8315,789.7436
790.14655,788.93774,810.293,790.9524
798.60803,791.3553,810.696,792.96704
795.78754,796.1905,807.47253,795.78754
786.1172,798.20514,801.4286,788.1319
792.1612,793.7729,802.23444,789.34064
803.44324,787.326,807.47253,790.9524
801.02563,790.9524,810.696,786.1172
799.011,790.9524,805.4579,790.9524
798.20514,780.87915,798.60803,794.57874
794.9817,779.67035,796.99634,799.41394
796.1905,784.10254,802.6374,792.1612
802.23444,789.34064,809.89014,783.69965
803.44324,785.31134,807.47253,780.4762
797.3993,779.2674,801.8315,781.28204
778.86444,784.5055,802.23444,789.7436
783.69965,790.14655,809.4872,795.38464
805.8608,790.54944,813.5165,795.38464
798.20514,789.7436,808.2784,790.54944
789.34064,794.9817,802.23444,794.17584
797.3993,790.9524,798.60803,799.81683
803.44324,786.1172,801.02563,803.44324
805.05493,792.96704,803.8461,807.8755
804.65204,790.14655,805.4579,803.8461
799.81683,788.93774,807.8755,802.23444
805.8608,793.7729,807.47253,800.6227
813.91943,797.3993,808.2784,810.293
800.6227,797.8022,806.6667,813.1135
783.69965,794.57874,808.68134,790.9524
795.38464,795.78754,811.9048,788.5348
803.44324,796.1905,807.47253,798.20514
800.6227,800.6227,803.0403,792.5641
803.44324,801.4286,804.65204,784.10254
813.1135,789.34064,803.8461,781.28204
800.6227,792.96704,798.60803,788.5348
791.3553,796.1905,804.2491,794.17584
787.72894,792.1612,807.0696,789.7436
812.71063,791.75824,808.68134,781.28204
782.8938,791.3553,803.0403,787.326
784.5055,795.78754,799.011,793.36993
811.50183,796.99634,801.8315,798.20514
818.7546,799.81683,810.293,804.2491
801.02563,795.38464,796.1905,792.5641
796.1905,794.9817,810.293,796.99634
779.2674,788.5348,803.0403,789.34064
792.5641,784.5055,799.011,790.54944
797.8022,784.90845,803.0403,796.1905
808.68134,787.72894,803.44324,798.20514
812.3077,788.93774,802.23444,796.5934
808.2784,787.72894,805.8608,801.02563
814.3223,780.87915,806.26373,809.0842
811.50183,779.67035,805.8608,803.8461
809.4872,785.31134,806.26373,790.9524
800.2198,787.72894,804.65204,788.1319
790.54944,787.326,805.4579,797.3993
804.2491,790.14655,805.8608,791.75824
799.011,794.17584,806.26373,785.31134
787.326,790.14655,806.6667,793.7729
796.5934,788.5348,805.4579,803.8461
791.3553,784.10254,804.2491,797.3993
786.9231,778.86444,801.4286,788.1319
788.93774,783.69965,801.4286,787.72894
786.9231,785.31134,800.6227,787.72894
798.20514,789.34064,797.3993,790.14655
795.38464,791.3553,799.81683,794.17584
791.3553,789.7436,799.41394,793.7729
800.6227,788.5348,795.78754,797.8022
801.02563,790.14655,805.05493,806.6667
795.78754,789.7436,810.293,801.02563
806.26373,787.326,805.05493,801.4286
826.4103,790.14655,801.4286,807.0696
819.5604,788.93774,802.23444,808.2784
800.6227,790.54944,808.2784,813.1135
799.011,791.3553,811.0989,812.71063
791.75824,789.7436,809.0842,809.4872
791.3553,792.5641,805.4579,803.0403
797.8022,789.7436,803.44324,803.44324
798.60803,782.8938,807.47253,806.26373
805.05493,784.10254,810.696,807.47253
809.89014,790.54944,805.4579,807.0696
805.4579,791.3553,802.6374,803.8461
798.60803,782.49084,799.011,791.75824
799.81683,778.86444,798.20514,792.1612
803.0403,784.5055,799.011,802.6374
800.6227,789.7436,798.60803,796.99634
786.1172,788.5348,802.23444,792.1612
776.8498,783.2967,800.6227,786.1172
779.2674,779.2674,799.011,777.6557
784.10254,784.10254,803.0403,786.52014
786.52014,788.1319,805.8608,792.1612
799.81683,784.10254,803.44324,786.52014
782.49084,788.93774,803.44324,793.7729
787.326,786.1172,800.2198,782.0879
789.34064,786.1172,800.2198,794.17584
786.52014,784.90845,803.0403,791.3553
790.14655,786.1172,797.8022,796.5934
792.96704,784.5055,799.41394,795.78754
801.8315,786.52014,800.2198,779.2674
803.8461,794.9817,803.44324,799.41394
809.4872,786.52014,803.8461,802.6374
801.02563,799.41394,804.2491,801.4286
797.3993,789.7436,799.011,796.99634
811.9048,787.72894,807.0696,808.2784
809.0842,798.60803,810.293,800.2198
806.6667,795.78754,809.89014,799.81683
803.0403,781.685,802.23444,803.8461
801.8315,779.2674,799.011,798.20514
794.9817,779.2674,798.20514,786.9231
799.011,780.4762,798.60803,791.75824
802.23444,778.46155,799.011,802.6374
793.7729,781.28204,800.2198,800.2198
809.4872,778.86444,801.4286,797.3993
810.696,785.7143,807.8755,800.6227
817.5458,788.93774,807.47253,795.78754
799.81683,791.3553,806.26373,795.78754
784.10254,786.9231,804.65204,799.81683
785.31134,778.86444,796.99634,792.5641
802.6374,780.4762,799.81683,795.38464
791.3553,776.04395,795.38464,790.54944
788.1319,784.90845,804.65204,797.8022
772.8205,784.10254,799.011,785.31134
777.6557,780.4762,789.34064,772.8205
786.9231,782.49084,789.34064,779.2674
784.5055,782.49084,793.36993,782.8938
795.78754,782.0879,797.8022,785.7143
792.1612,785.31134,799.011,780.87915
778.86444,793.36993,796.99634,778.0586
788.1319,792.1612,793.7729,781.685
793.36993,789.7436,793.36993,779.2674
800.2198,786.52014,790.54944,783.69965
794.17584,786.1172,793.7729,788.5348
782.0879,782.8938,792.96704,778.86444
803.0403,783.69965,792.1612,780.07324
808.2784,783.69965,793.7729,789.34064
789.34064,780.07324,792.5641,788.1319
805.8608,784.10254,796.99634,792.1612
826.4103,785.7143,802.6374,801.8315
815.9341,782.8938,799.011,801.4286
800.2198,779.2674,793.7729,788.93774
800.2198,787.326,803.0403,790.14655
800.2198,787.326,806.26373,793.7729
795.38464,782.8938,802.23444,793.36993
801.8315,784.10254,802.6374,794.17584
804.65204,784.5055,800.2198,790.9524
792.96704,784.90845,799.011,791.3553
788.93774,783.2967,804.65204,785.7143
786.9231,788.93774,806.6667,776.4469
780.87915,790.9524,802.23444,776.8498
781.28204,793.7729,802.6374,785.7143
780.07324,795.78754,802.6374,792.96704
784.90845,793.7729,804.2491,786.52014
791.3553,796.5934,807.8755,783.2967
782.49084,790.54944,804.65204,787.72894
780.87915,785.31134,799.011,783.2967
801.4286,787.326,800.2198,778.0586
804.2491,783.69965,803.44324,779.2674
798.20514,788.1319,803.8461,790.9524
792.5641,790.54944,802.23444,797.3993
787.326,788.93774,799.81683,792.1612
792.96704,793.7729,801.8315,794.9817
803.8461,801.02563,802.23444,797.3993
802.23444,799.011,799.81683,797.3993
792.1612,793.7729,799.41394,801.8315
788.1319,801.4286,803.44324,796.1905
795.38464,795.78754,804.65204,791.75824
797.3993,786.52014,807.47253,803.8461
802.23444,792.1612,813.91943,811.0989
805.8608,796.1905,807.8755,805.05493
805.05493,794.57874,801.02563,803.44324
803.44324,795.78754,799.011,800.6227
809.4872,788.5348,807.47253,802.23444
796.99634,782.8938,805.05493,790.54944
790.9524,784.10254,800.2198,783.2967
798.60803,779.2674,796.99634,788.93774
807.8755,784.90845,800.6227,799.41394
804.2491,792.5641,806.6667,799.011
796.1905,784.5055,803.8461,787.326
813.5165,787.326,801.02563,783.69965
807.47253,790.9524,803.0403,786.52014
790.54944,787.326,806.6667,788.1319
796.99634,788.5348,808.2784,789.34064
797.3993,790.14655,806.26373,793.7729
796.99634,792.96704,807.47253,803.0403
793.36993,791.75824,805.4579,800.2198
789.7436,789.7436,800.6227,788.5348
792.96704,792.1612,801.02563,782.8938
791.75824,797.3993,801.02563,788.93774
786.52014,801.8315,800.6227,793.7729
796.1905,784.10254,799.011,783.69965
790.14655,794.9817,801.8315,788.5348
798.20514,784.5055,798.20514,795.78754
796.5934,789.7436,808.68134,793.36993
810.293,789.7436,808.68134,786.1172
799.41394,788.1319,802.23444,805.05493
818.7546,791.3553,801.4286,788.1319
810.696,790.14655,797.8022,782.8938
795.78754,788.5348,800.6227,784.5055
788.1319,792.5641,801.4286,787.326
789.7436,793.7729,796.5934,784.90845
775.64105,776.8498,803.44324,787.72894
782.0879,781.685,806.6667,794.9817
810.696,792.5641,796.1905,787.72894
785.31134,786.9231,795.78754,788.5348
805.4579,790.54944,801.8315,804.65204
805.8608,788.93774,797.3993,793.7729
788.1319,790.14655,798.60803,791.75824
788.93774,791.75824,800.6227,792.96704
796.5934,796.99634,793.7729,790.9524
803.0403,799.81683,795.38464,803.8461
803.0403,795.38464,800.2198,810.293
806.6667,796.5934,798.20514,807.0696
805.4579,802.23444,799.81683,802.23444
803.0403,804.65204,807.47253,808.68134
810.696,803.8461,808.68134,804.2491
814.7253,800.2198,804.65204,795.38464
800.6227,800.2198,806.26373,796.1905
801.8315,799.011,809.0842,797.3993
821.5751,796.1905,808.68134,804.65204
793.36993,791.3553,811.0989,800.2198
799.011,794.9817,809.0842,799.41394
794.57874,792.1612,814.3223,796.99634
794.57874,794.9817,807.8755,796.1905
784.90845,791.75824,802.23444,797.8022
789.34064,788.93774,803.44324,799.81683
798.60803,790.14655,807.47253,803.0403
804.65204,786.1172,805.8608,800.2198
781.28204,784.10254,796.1905,796.1905
812.71063,787.72894,803.0403,796.99634
783.2967,794.57874,813.1135,794.9817
805.4579,792.5641,810.293,806.6667
808.2784,788.5348,795.78754,791.75824
804.65204,788.93774,792.96704,792.5641
801.4286,790.54944,798.60803,790.14655
789.34064,786.52014,802.23444,796.99634
794.9817,787.326,798.20514,803.8461
799.41394,794.9817,801.02563,794.57874
792.96704,787.72894,801.4286,796.99634
790.9524,775.2381,795.38464,787.326
793.36993,778.86444,796.99634,779.67035
805.4579,782.0879,799.011,783.69965
799.011,780.07324,793.7729,785.7143
788.1319,777.25275,794.17584,797.8022
790.54944,778.86444,799.41394,798.20514
788.1319,781.685,797.8022,794.9817
786.9231,785.31134,797.3993,792.5641
795.78754,782.49084,797.8022,789.7436
799.011,778.0586,798.60803,788.93774
804.2491,786.9231,802.23444,790.54944
796.99634,788.5348,798.20514,786.52014
792.1612,784.10254,794.57874,781.28204
806.26373,789.34064,794.17584,786.1172
807.8755,788.93774,793.36993,785.31134
791.75824,792.5641,799.81683,790.9524
792.96704,794.57874,805.8608,805.8608
794.17584,792.96704,801.02563,799.011
784.5055,783.69965,796.1905,803.0403
802.6374,782.49084,801.02563,806.6667
785.31134,790.54944,795.78754,788.1319
812.3077,786.1172,805.05493,788.93774
801.8315,793.7729,801.8315,786.9231
789.7436,793.7729,792.5641,787.326
783.69965,784.90845,792.1612,784.10254
777.25275,783.69965,799.011,782.49084
785.7143,783.2967,796.99634,784.90845
791.3553,784.10254,794.9817,790.9524
782.49084,784.90845,796.1905,790.14655
793.7729,790.54944,798.20514,795.78754
791.3553,792.1612,799.81683,797.8022
780.4762,783.69965,798.60803,796.99634
788.1319,784.5055,799.011,798.60803
794.57874,789.34064,797.8022,799.41394
797.8022,792.5641,796.5934,803.44324
789.7436,785.31134,796.5934,795.38464
786.9231,779.2674,798.60803,788.1319
790.9524,776.8498,800.2198,790.9524
795.38464,776.8498,795.38464,790.14655
815.9341,784.5055,793.7729,792.96704
815.9341,790.54944,797.3993,790.14655
796.99634,790.9524,800.2198,778.0586
785.31134,792.5641,799.81683,779.67035
791.3553,793.36993,798.60803,788.1319
808.68134,791.75824,797.8022,796.1905
806.26373,795.38464,800.6227,798.20514
799.011,798.60803,807.47253,794.9817
804.65204,800.6227,808.68134,799.81683
804.2491,795.38464,802.6374,804.2491
796.1905,787.72894,794.9817,800.2198
801.4286,785.7143,794.9817,791.3553
803.44324,788.5348,796.5934,789.7436
797.3993,788.5348,796.5934,790.9524
796.5934,786.1172,795.38464,790.54944
806.6667,791.3553,800.2198,796.99634
815.9341,794.17584,796.99634,795.78754
811.0989,796.99634,798.20514,791.75824
781.685,798.20514,798.20514,790.9524
787.326,790.54944,792.5641,790.9524
806.6667,782.0879,793.36993,792.5641
797.8022,787.72894,797.3993,795.78754
789.34064,788.1319,796.5934,791.75824
784.10254,796.99634,799.011,790.54944
794.17584,796.99634,803.8461,793.36993
795.38464,792.5641,802.23444,792.96704
794.57874,795.38464,799.81683,792.96704
794.17584,791.3553,800.6227,794.9817
784.5055,788.5348,795.78754,786.1172
782.49084,793.36993,793.7729,780.4762
790.54944,794.17584,797.3993,782.8938
793.7729,799.41394,803.8461,780.07324
794.57874,794.9817,805.4579,783.2967
792.96704,785.31134,800.6227,783.69965
798.60803,789.34064,796.99634,784.90845
818.7546,797.3993,793.36993,794.9817
823.9927,799.81683,796.1905,803.8461
825.6044,795.38464,804.2491,800.6227
829.2308,798.20514,807.47253,801.4286
804.65204,796.5934,806.26373,801.4286
798.60803,789.34064,802.23444,793.36993
808.2784,791.3553,797.8022,792.5641
793.36993,788.1319,799.011,790.14655
788.5348,792.1612,803.0403,792.96704
791.3553,790.14655,800.6227,797.3993
788.1319,776.4469,792.5641,792.1612
781.28204,778.46155,792.5641,790.54944
790.9524,785.31134,796.5934,799.011
798.20514,789.34064,799.011,801.4286
800.6227,782.49084,798.20514,795.38464
801.4286,780.4762,799.011,795.78754
797.8022,784.90845,801.4286,795.38464
799.81683,791.75824,804.2491,790.54944
797.3993,785.7143,803.8461,794.57874
799.41394,787.72894,799.41394,785.7143
794.17584,787.72894,800.6227,788.1319
794.17584,792.96704,800.6227,787.72894
796.1905,784.90845,799.41394,784.5055
802.23444,783.69965,799.41394,784.5055
804.2491,791.75824,798.60803,786.9231
804.65204,794.57874,797.3993,787.326
799.011,787.326,794.9817,786.1172
797.3993,784.10254,795.38464,789.34064
806.6667,789.34064,801.02563,794.9817
803.44324,791.75824,804.65204,797.3993
798.60803,785.31134,800.2198,807.0696
796.1905,778.46155,795.38464,811.9048
794.17584,790.54944,795.78754,805.05493
796.5934,794.57874,799.81683,799.41394
795.78754,788.5348,803.8461,803.0403
796.1905,792.5641,805.4579,802.6374
790.54944,785.31134,797.3993,797.3993
788.93774,781.28204,793.36993,793.7729
803.0403,790.14655,799.41394,798.60803
801.8315,798.60803,801.02563,803.0403
803.0403,793.7729,801.4286,799.41394
807.47253,785.7143,803.0403,799.81683
792.96704,780.4762,802.23444,793.36993
777.25275,779.67035,805.05493,790.54944
788.5348,786.9231,804.65204,795.38464
806.26373,785.31134,800.6227,792.96704
815.9341,780.87915,799.81683,790.54944
803.8461,786.9231,796.1905,788.93774
780.4762,789.34064,796.1905,782.49084
777.6557,791.3553,798.60803,778.0586
776.8498,789.34064,796.5934,775.64105
778.46155,779.2674,790.9524,777.6557
788.5348,776.04395,790.14655,786.9231
792.1612,780.87915,793.7729,783.69965
794.57874,782.49084,798.20514,780.4762
795.78754,781.685,801.8315,795.38464
789.34064,786.52014,796.5934,794.9817
790.9524,785.31134,791.75824,792.1612
802.6374,785.7143,795.38464,805.05493
796.5934,785.31134,796.1905,809.0842
794.9817,783.2967,797.3993,799.011
807.8755,786.52014,794.57874,794.57874
801.4286,784.90845,792.5641,799.011
802.23444,790.14655,800.6227,795.78754
796.99634,786.52014,799.81683,797.8022
805.05493,788.93774,794.9817,796.5934
790.54944,785.31134,792.1612,790.54944
807.0696,790.14655,796.99634,794.9817
796.99634,791.3553,798.20514,795.38464
805.4579,790.9524,799.011,803.0403
807.0696,787.326,795.78754,799.011
803.0403,792.1612,795.78754,797.3993
796.5934,795.38464,791.3553,793.7729
807.0696,797.8022,793.7729,795.78754
811.0989,800.6227,799.81683,798.20514
805.8608,803.44324,797.3993,794.9817
796.1905,796.5934,793.7729,792.96704
790.14655,784.5055,793.7729,782.8938
801.02563,788.1319,794.9817,783.2967
788.5348,791.3553,799.41394,789.34064
786.9231,793.7729,799.81683,784.90845
803.0403,796.5934,797.3993,783.69965
801.8315,789.34064,792.96704,785.31134
811.9048,791.75824,796.5934,795.38464
817.9487,789.34064,801.02563,797.3993
809.4872,789.34064,804.2491,794.57874
796.5934,798.60803,805.8608,800.6227
794.9817,792.96704,803.44324,800.2198
794.9817,789.34064,800.6227,794.57874
793.36993,785.7143,798.20514,794.17584
798.20514,792.96704,806.6667,803.8461
793.7729,793.36993,805.8608,801.8315
805.4579,792.96704,800.2198,797.3993
818.3516,799.41394,796.99634,799.011
790.9524,792.5641,795.78754,793.36993
794.57874,788.93774,797.3993,793.36993
801.02563,790.14655,794.57874,789.34064
804.65204,799.81683,793.36993,795.38464
801.02563,787.72894,796.99634,791.3553
792.1612,783.2967,793.36993,791.75824
793.36993,791.75824,791.75824,791.3553
799.011,794.57874,794.57874,795.78754
811.50183,790.54944,792.1612,793.36993
808.2784,792.1612,790.54944,789.7436
790.9524,799.81683,798.20514,793.36993
792.96704,802.23444,803.0403,799.41394
794.57874,796.1905,802.6374,800.6227
800.6227,790.9524,795.38464,783.69965
801.8315,784.90845,793.7729,783.69965
790.9524,796.99634,800.6227,792.5641
795.38464,784.90845,792.96704,786.52014
793.36993,790.14655,793.7729,789.7436
797.3993,796.5934,790.54944,783.2967
791.3553,796.1905,794.57874,788.93774
806.6667,798.60803,791.75824,793.36993
797.3993,799.41394,794.9817,799.41394
799.41394,798.20514,794.9817,792.5641
790.9524,790.14655,790.9524,796.1905
785.7143,786.1172,793.7729,795.38464
799.81683,797.8022,796.5934,788.5348
800.6227,801.02563,799.011,788.1319
807.0696,796.5934,799.41394,794.17584
813.91943,800.2198,800.6227,794.57874
792.96704,797.3993,797.8022,788.93774
787.72894,789.34064,792.96704,796.1905
794.57874,789.34064,796.5934,798.60803
792.5641,792.96704,798.20514,798.60803
794.57874,792.1612,795.38464,799.011
794.9817,790.9524,794.17584,794.17584
790.14655,790.14655,799.011,790.14655
798.60803,792.1612,798.60803,790.9524
801.02563,799.81683,797.8022,798.20514
789.7436,789.34064,800.6227,794.9817
793.36993,779.67035,801.02563,790.9524
794.9817,793.7729,796.5934,792.5641
793.7729,782.8938,802.6374,796.99634
797.8022,788.93774,804.2491,792.96704
796.1905,790.9524,800.2198,788.5348
792.1612,789.34064,801.4286,787.326
785.31134,790.14655,801.8315,783.2967
784.10254,796.5934,803.0403,788.93774
801.8315,789.34064,801.8315,788.5348
821.1722,783.69965,797.8022,788.5348
820.7692,795.38464,804.2491,799.41394
791.3553,794.17584,804.65204,807.0696
784.90845,790.54944,799.41394,805.05493
794.57874,790.14655,804.2491,795.78754
797.3993,789.34064,806.6667,798.20514
788.1319,793.7729,803.44324,800.2198
788.1319,795.38464,799.41394,790.9524
798.20514,798.60803,799.81683,788.5348
799.81683,801.8315,801.4286,795.38464
809.0842,799.41394,800.6227,803.44324
815.5311,792.5641,799.41394,801.4286
797.8022,787.326,797.8022,795.78754
788.1319,780.87915,795.38464,791.75824
785.31134,781.685,796.1905,789.7436
786.1172,788.5348,794.9817,784.90845
785.31134,786.1172,793.7729,778.86444
784.90845,782.0879,792.1612,781.28204
795.78754,783.2967,794.9817,793.7729
801.02563,792.5641,798.60803,792.5641
801.4286,796.1905,795.78754,787.326
801.8315,793.36993,797.8022,787.326
811.9048,796.1905,802.6374,784.5055
811.50183,796.99634,801.4286,786.52014
783.69965,790.9524,799.011,788.1319
778.0586,782.8938,794.9817,793.36993
781.28204,784.90845,793.7729,791.3553
780.07324,794.17584,796.1905,783.2967
791.3553,795.78754,794.17584,782.8938
800.2198,795.78754,797.3993,790.54944
807.47253,794.17584,800.6227,796.99634
801.4286,791.3553,794.57874,790.54944
793.7729,791.75824,790.54944,789.7436
792.96704,790.9524,791.3553,791.75824
793.36993,790.9524,794.57874,791.75824
792.1612,788.5348,799.81683,803.0403
790.9524,788.1319,799.81683,808.2784
793.36993,790.9524,793.36993,801.02563
800.6227,789.7436,794.17584,801.4286
797.8022,785.31134,793.7729,800.6227
797.3993,791.3553,793.36993,798.20514
809.4872,795.78754,796.5934,791.3553
815.9341,787.72894,796.99634,785.7143
794.17584,789.7436,792.1612,789.34064
776.4469,797.8022,791.3553,792.96704
787.326,794.57874,796.1905,792.96704
793.7729,801.8315,797.8022,787.326
791.75824,801.02563,793.7729,778.0586
790.9524,795.78754,789.34064,792.5641
788.93774,798.20514,790.9524,791.75824
797.3993,796.1905,787.72894,784.10254
795.38464,795.38464,784.5055,779.67035
791.3553,792.5641,788.93774,782.0879
782.49084,792.1612,787.326,777.6557
783.69965,787.326,788.5348,782.49084
794.9817,792.96704,792.1612,788.5348
801.4286,799.011,792.96704,792.1612
810.293,800.6227,791.3553,791.3553
824.3956,803.0403,792.96704,794.9817
823.1868,796.1905,795.38464,797.3993
813.1135,786.52014,797.8022,784.10254
801.8315,786.1172,798.20514,791.75824
794.17584,790.14655,794.9817,802.6374
801.8315,793.7729,793.7729,799.41394
802.6374,796.5934,796.5934,801.8315
798.60803,791.75824,797.8022,796.5934
787.72894,788.93774,799.011,789.7436
787.326,792.96704,800.6227,791.75824
797.8022,790.14655,799.81683,797.8022
796.5934,785.31134,799.41394,802.6374
796.1905,795.78754,803.44324,799.81683
799.011,792.1612,802.6374,803.0403
789.7436,776.04395,797.8022,801.02563
796.5934,788.93774,799.41394,792.5641
798.60803,793.7729,795.38464,791.3553
812.3077,794.17584,799.81683,796.1905
790.54944,790.54944,794.17584,792.96704
825.6044,795.78754,803.8461,796.99634
803.0403,799.011,803.8461,795.38464
786.1172,798.60803,802.23444,796.1905
792.5641,801.4286,803.0403,800.6227
792.5641,809.4872,801.4286,796.1905
795.38464,809.0842,799.81683,794.57874
803.44324,796.1905,799.011,799.81683
799.011,791.75824,797.8022,794.9817
797.3993,797.3993,799.41394,798.20514
803.44324,799.81683,802.23444,803.44324
800.2198,797.3993,801.02563,794.57874
807.8755,796.5934,795.78754,795.38464
805.05493,797.8022,795.38464,801.8315
807.47253,798.20514,797.3993,798.60803
802.23444,799.41394,798.20514,799.011
797.3993,795.78754,798.60803,800.6227
795.78754,796.1905,799.011,799.41394
787.72894,788.1319,798.60803,795.78754
803.44324,795.38464,798.20514,801.8315
774.83514,788.1319,799.011,788.5348
782.49084,789.34064,802.23444,786.52014
799.41394,788.5348,801.4286,794.57874
801.02563,792.1612,799.011,799.81683
799.011,795.78754,799.81683,793.36993
810.696,790.9524,798.60803,794.17584
804.2491,789.34064,799.41394,796.5934
789.7436,787.72894,798.60803,789.34064
782.8938,781.685,797.3993,787.72894
784.5055,785.7143,798.60803,794.17584
794.9817,796.99634,797.8022,792.1612
794.17584,796.5934,799.81683,789.7436
789.34064,784.5055,796.99634,787.72894
787.72894,778.0586,791.75824,782.8938
792.96704,783.69965,798.20514,787.326
798.20514,790.54944,804.65204,790.9524
798.60803,790.9524,805.05493,788.1319
799.81683,790.54944,802.23444,785.7143
799.41394,792.1612,800.2198,782.0879
801.8315,791.75824,799.81683,784.5055
801.4286,788.1319,798.20514,785.7143
805.4579,789.7436,801.8315,787.326
805.4579,794.17584,803.44324,792.5641
817.9487,790.9524,797.8022,793.7729
809.0842,790.14655,796.5934,791.75824
780.07324,790.9524,799.011,787.326
786.1172,792.96704,801.8315,786.1172
790.54944,796.5934,802.23444,790.14655
787.72894,797.3993,800.6227,788.93774
784.10254,795.78754,792.5641,784.90845
787.326,789.34064,790.9524,784.90845
795.78754,790.14655,800.2198,794.57874
794.57874,788.5348,801.4286,799.81683
804.2491,790.9524,800.2198,801.02563
804.2491,802.6374,797.3993,805.05493
795.38464,803.0403,792.5641,799.81683
806.26373,794.17584,791.3553,803.0403
803.0403,791.3553,792.5641,806.6667
790.14655,792.1612,790.9524,803.0403
795.78754,793.36993,790.54944,801.02563
805.4579,791.75824,793.36993,796.5934
803.8461,792.96704,794.57874,794.17584
810.696,789.34064,796.99634,796.99634
828.4249,789.34064,796.5934,803.8461
819.15753,787.72894,793.36993,808.68134
789.7436,784.10254,796.5934,801.02563
784.10254,792.1612,799.81683,793.7729
784.90845,783.2967,793.36993,787.72894
780.4762,773.6264,788.93774,783.69965
785.31134,781.28204,790.54944,787.72894
797.3993,788.93774,790.14655,792.5641
787.326,792.1612,791.75824,789.7436
788.5348,793.7729,794.9817,784.10254
794.9817,786.9231,791.3553,778.0586
799.81683,778.86444,789.34064,788.1319
794.57874,785.7143,797.8022,790.14655
792.1612,779.67035,787.326,780.07324
778.46155,790.54944,798.20514,784.10254
782.49084,790.54944,793.7729,784.90845
784.10254,783.69965,787.326,778.0586
797.8022,788.1319,790.54944,786.52014
802.23444,787.72894,796.1905,794.57874
783.69965,783.69965,796.1905,787.326
778.86444,783.2967,794.57874,784.10254
779.67035,789.7436,802.23444,787.326
793.36993,784.5055,794.17584,791.75824
784.10254,786.1172,796.5934,796.5934
767.5824,785.31134,794.57874,784.10254
785.7143,784.90845,794.9817,780.07324
793.36993,786.52014,796.99634,787.326
792.96704,794.9817,794.57874,794.57874
804.2491,793.36993,794.9817,796.99634
802.23444,790.54944,798.20514,785.7143
802.6374,794.17584,798.60803,787.326
800.2198,786.9231,794.17584,793.36993
795.38464,786.1172,788.93774,787.326
804.2491,788.93774,788.5348,790.54944
800.2198,794.9817,792.1612,794.9817
788.5348,796.1905,790.9524,788.93774
786.9231,794.57874,790.54944,786.52014
784.90845,798.20514,794.57874,786.52014
784.5055,795.38464,794.9817,786.1172
804.65204,794.57874,792.1612,796.5934
789.34064,794.17584,794.17584,797.3993
809.4872,789.7436,792.5641,781.28204
799.81683,789.34064,792.96704,784.5055
791.3553,793.36993,794.57874,794.9817
801.4286,796.1905,796.99634,805.8608
792.96704,796.1905,795.78754,796.99634
801.02563,792.5641,790.9524,801.8315
791.75824,786.52014,787.72894,794.9817
806.26373,799.41394,795.78754,803.0403
802.23444,798.20514,794.17584,798.60803
798.20514,788.1319,788.93774,790.54944
804.2491,784.10254,786.1172,791.3553
792.96704,788.93774,792.1612,793.36993
803.0403,790.54944,794.17584,797.8022
784.5055,790.54944,794.17584,799.41394
801.02563,783.2967,790.9524,791.75824
800.2198,787.326,793.7729,801.02563
809.89014,795.78754,796.99634,807.8755
811.0989,790.9524,797.8022,794.17584
803.44324,787.72894,790.14655,790.14655
805.05493,784.90845,797.8022,793.7729
796.1905,786.1172,791.3553,785.31134
786.52014,793.36993,792.5641,779.2674
774.43225,794.9817,795.78754,779.2674
772.01465,793.36993,796.5934,784.10254
773.22345,789.34064,799.41394,790.54944
778.0586,786.52014,798.20514,792.5641
791.3553,792.5641,789.7436,785.7143
792.96704,798.20514,782.49084,788.5348
782.0879,792.1612,785.7143,792.5641
782.49084,789.7436,795.78754,782.8938
786.52014,786.9231,797.8022,776.8498
793.36993,786.52014,792.1612,785.7143
801.4286,788.1319,786.52014,783.69965
803.8461,788.1319,789.7436,784.90845
804.65204,794.9817,799.41394,802.23444
809.0842,791.75824,800.6227,803.0403
815.5311,785.7143,796.5934,796.1905
804.65204,787.72894,790.14655,794.9817
792.1612,788.1319,786.1172,792.96704
799.011,791.3553,789.7436,794.9817
805.8608,789.7436,791.3553,787.72894
800.6227,782.0879,787.326,785.31134
794.17584,784.5055,790.14655,790.14655
795.78754,792.1612,796.99634,790.54944
797.8022,798.60803,801.8315,794.57874
790.14655,798.60803,801.4286,796.5934
789.7436,798.20514,799.81683,786.52014
788.93774,799.41394,801.02563,785.7143
789.34064,791.75824,799.81683,792.1612
796.5934,789.34064,800.6227,796.5934
792.5641,793.36993,803.0403,803.0403
784.90845,788.5348,796.99634,793.36993
790.54944,787.326,793.36993,781.685
786.9231,789.7436,793.7729,785.31134
779.2674,791.3553,793.7729,789.7436
784.5055,794.57874,794.57874,789.34064
784.5055,792.96704,795.38464,788.5348
786.52014,786.9231,789.34064,785.31134
787.72894,790.14655,786.52014,778.86444
801.02563,788.93774,790.14655,781.28204
817.1429,787.72894,789.34064,791.3553
799.41394,794.17584,791.3553,793.36993
786.52014,789.7436,791.75824,788.1319
791.3553,790.14655,788.5348,787.326
798.20514,796.5934,792.5641,796.1905
805.4579,794.17584,799.011,808.68134
808.2784,793.7729,799.011,811.0989
807.47253,800.6227,801.4286,807.47253
790.9524,795.38464,796.1905,801.02563
796.5934,790.54944,793.7729,801.02563
813.1135,796.5934,797.3993,807.47253
808.2784,797.8022,798.20514,807.47253
799.41394,787.72894,792.96704,795.38464
791.3553,783.2967,784.5055,792.5641
785.31134,783.69965,785.7143,791.3553
802.23444,793.36993,791.75824,799.81683
790.9524,790.9524,791.75824,791.3553
806.6667,788.1319,791.3553,798.20514
794.57874,788.93774,794.17584,790.9524
774.43225,790.9524,792.96704,791.3553
770.80585,792.96704,796.5934,787.326
772.01465,786.52014,795.78754,781.28204
768.7912,793.7729,791.75824,782.8938
771.6117,795.78754,788.1319,785.7143
768.7912,782.8938,787.326,783.69965
783.2967,786.52014,793.36993,786.52014
791.75824,786.9231,799.41394,790.54944
783.69965,786.52014,797.8022,786.1172
796.1905,794.57874,795.38464,781.685
804.65204,796.99634,796.99634,787.72894
813.1135,799.41394,796.99634,794.9817
811.9048,796.5934,796.1905,793.36993
796.5934,790.54944,796.1905,794.9817
801.02563,792.96704,797.8022,796.99634
825.6044,799.011,799.81683,797.3993
819.15753,792.96704,799.011,799.81683
792.5641,784.90845,799.41394,801.4286
787.326,786.9231,799.41394,799.41394
787.72894,788.1319,791.75824,790.54944
784.10254,785.31134,794.9817,788.5348
782.0879,787.72894,800.6227,796.99634
790.14655,785.7143,801.02563,799.81683
785.7143,782.0879,798.60803,793.36993
775.64105,782.8938,794.9817,785.7143
780.87915,787.326,795.38464,780.4762
785.31134,798.60803,796.99634,783.69965
783.69965,796.99634,794.17584,792.1612
779.2674,786.9231,793.36993,786.52014
775.2381,782.8938,793.36993,776.04395
784.5055,789.34064,792.96704,773.6264
788.5348,785.7143,789.34064,776.04395
779.67035,788.5348,790.9524,780.07324
794.17584,796.99634,796.1905,783.69965
810.696,794.9817,797.8022,787.326
817.5458,794.9817,794.9817,786.52014
799.41394,796.1905,792.5641,786.52014
783.2967,791.3553,794.57874,788.5348
786.9231,789.34064,795.78754,788.1319
788.5348,797.3993,796.5934,790.14655
795.78754,796.99634,792.5641,795.78754
803.8461,792.96704,795.38464,803.8461
794.17584,788.1319,793.36993,804.2491
788.1319,793.36993,792.96704,805.8608
792.1612,791.75824,792.1612,805.05493
792.5641,787.72894,790.54944,802.23444
796.1905,796.1905,796.5934,806.26373
795.78754,797.3993,797.3993,797.8022
804.2491,792.96704,796.5934,797.3993
811.50183,793.7729,794.57874,796.1905
796.5934,795.38464,790.9524,793.36993
781.685,799.41394,790.54944,794.57874
789.34064,791.75824,788.93774,791.3553
803.44324,786.52014,792.96704,802.23444
792.1612,798.20514,796.1905,799.41394
784.90845,802.23444,794.17584,789.34064
782.8938,788.5348,792.5641,784.90845
777.25275,784.10254,796.99634,782.8938
776.4469,786.9231,797.3993,784.10254
778.86444,790.54944,797.8022,791.3553
784.90845,792.96704,798.20514,786.9231
784.10254,788.5348,799.011,782.49084
785.7143,792.96704,803.0403,790.9524
786.52014,802.23444,805.05493,792.5641
793.36993,794.17584,803.0403,795.38464
810.293,786.1172,794.9817,799.011
821.5751,790.9524,794.57874,804.65204
819.15753,790.54944,794.57874,805.8608
809.89014,789.7436,793.7729,800.2198
796.99634,794.57874,796.1905,799.011
786.52014,794.57874,792.5641,797.3993
795.78754,796.99634,789.34064,797.8022
807.47253,797.3993,795.38464,803.8461
800.6227,792.1612,796.99634,799.011
800.6227,792.1612,795.38464,793.36993
807.0696,795.78754,798.20514,794.57874
807.47253,793.7729,796.5934,787.326
798.60803,786.9231,790.54944,789.34064
793.36993,787.326,791.3553,797.8022
799.011,790.9524,795.78754,790.9524
797.3993,785.7143,794.57874,785.7143
796.5934,788.1319,797.8022,787.72894
804.65204,796.1905,799.41394,791.75824
801.8315,785.7143,794.57874,786.9231
799.011,793.7729,799.81683,786.1172
778.86444,789.34064,789.34064,777.25275
810.293,790.54944,798.60803,794.9817
779.67035,793.7729,793.36993,777.25275
784.10254,792.1612,795.78754,781.28204
775.64105,787.72894,792.5641,785.7143
780.87915,792.1612,796.1905,786.1172
789.7436,791.75824,798.20514,782.49084
789.7436,787.326,798.60803,780.87915
786.9231,789.7436,803.0403,788.1319
790.9524,796.99634,800.2198,793.7729
797.8022,797.8022,792.96704,796.1905
799.011,791.75824,788.5348,795.38464
808.2784,793.36993,793.36993,797.3993
813.5165,796.5934,795.78754,797.3993
795.78754,792.96704,793.36993,794.57874
782.8938,782.8938,789.34064,788.93774
786.9231,778.86444,782.8938,786.1172
794.17584,788.1319,781.28204,794.9817
809.4872,795.38464,788.93774,801.02563
819.9634,802.6374,796.5934,805.4579
802.6374,805.05493,796.5934,807.0696
784.90845,798.20514,792.1612,790.9524
787.72894,796.5934,793.36993,792.5641
800.2198,800.2198,800.2198,809.0842
803.0403,799.41394,798.60803,803.8461
797.8022,798.20514,793.7729,799.011
801.4286,799.81683,793.7729,794.57874
810.696,801.4286,793.36993,793.7729
789.7436,790.54944,791.3553,799.011
777.6557,787.326,793.7729,796.99634
806.26373,791.75824,796.1905,789.7436
813.5165,791.3553,795.38464,789.7436
792.96704,785.7143,793.7729,788.1319
782.0879,782.49084,794.17584,780.87915
788.5348,785.31134,796.1905,785.7143
805.05493,787.326,796.5934,792.5641
817.5458,791.3553,790.9524,791.3553
805.4579,795.78754,788.1319,799.41394
790.14655,801.02563,794.9817,803.0403
789.34064,795.78754,798.60803,788.5348
790.9524,788.5348,800.2198,787.72894
796.5934,789.34064,795.38464,792.5641
804.2491,791.75824,786.52014,792.1612
803.44324,791.75824,788.1319,794.57874
797.3993,788.1319,792.96704,794.57874
798.60803,785.31134,792.1612,788.5348
794.17584,784.90845,788.93774,798.20514
806.6667,784.90845,787.72894,790.14655
780.07324,787.72894,788.5348,796.1905
784.10254,787.72894,788.5348,797.3993
788.93774,794.9817,796.99634,800.2198
784.10254,790.54944,794.9817,792.96704
795.78754,781.28204,784.90845,790.54944
817.5458,781.28204,783.69965,788.93774
818.7546,788.5348,788.1319,784.90845
791.75824,795.38464,793.7729,785.31134
781.28204,795.78754,790.9524,784.90845
786.9231,794.9817,785.31134,778.86444
774.83514,791.3553,788.5348,776.04395
785.7143,791.75824,791.75824,782.0879
794.17584,794.57874,792.1612,784.90845
790.9524,803.0403,790.9524,777.25275
784.10254,799.41394,792.5641,778.86444
788.93774,792.5641,790.9524,784.10254
797.8022,784.5055,797.3993,791.3553
802.6374,792.5641,799.81683,793.36993
792.96704,798.60803,792.96704,791.3553
811.50183,802.6374,791.3553,788.1319
819.9634,798.60803,790.9524,786.1172
805.4579,796.1905,791.3553,794.17584
804.2491,797.8022,795.38464,798.20514
808.2784,800.6227,796.99634,797.8022
796.5934,796.99634,792.1612,793.7729
792.96704,790.54944,786.9231,793.36993
801.4286,796.99634,789.7436,800.2198
796.99634,795.38464,790.54944,799.81683
797.8022,784.10254,788.93774,798.60803
793.7729,786.1172,789.7436,796.5934
791.75824,789.7436,789.34064,800.2198
799.011,790.14655,792.5641,799.011
790.54944,790.54944,796.99634,790.54944
785.7143,788.93774,797.8022,790.14655
795.38464,795.78754,795.78754,788.93774
790.54944,790.14655,796.99634,782.8938
792.1612,792.96704,795.78754,790.14655
795.38464,790.54944,799.41394,780.87915
795.78754,799.81683,802.23444,787.72894
793.7729,798.20514,799.81683,782.0879
788.5348,786.1172,793.7729,774.83514
775.64105,789.7436,796.99634,779.67035
790.9524,795.78754,801.8315,789.34064
811.50183,796.5934,796.1905,795.38464
814.3223,800.6227,793.7729,799.011
806.26373,802.6374,793.36993,803.8461
801.4286,803.0403,794.9817,797.8022
794.17584,793.7729,796.5934,788.93774
795.38464,786.1172,794.57874,792.5641
808.68134,788.93774,793.36993,793.7729
806.26373,796.1905,793.36993,796.1905
795.38464,791.75824,792.5641,804.2491
799.011,784.90845,794.57874,806.6667
803.44324,788.93774,794.17584,804.65204
815.12823,793.7729,796.1905,807.47253
822.381,787.72894,798.60803,799.41394
814.3223,787.326,796.1905,791.3553
803.44324,793.7729,798.60803,796.99634
798.20514,788.5348,800.2198,799.41394
801.4286,791.3553,803.0403,805.05493
793.36993,793.36993,803.8461,797.8022
792.1612,786.1172,801.8315,792.96704
794.17584,793.36993,803.8461,799.011
787.326,792.5641,802.23444,792.96704
785.31134,786.52014,796.5934,791.3553
790.9524,788.1319,795.78754,793.7729
803.44324,794.57874,800.2198,797.8022
810.293,792.1612,801.8315,803.44324
798.20514,784.10254,797.3993,795.38464
775.64105,787.72894,796.99634,792.1612
790.14655,789.34064,793.36993,794.17584
802.23444,790.54944,788.93774,790.54944
798.60803,795.38464,796.1905,800.2198
792.1612,790.54944,801.8315,800.6227
785.7143,794.9817,802.6374,802.23444
786.1172,794.9817,800.2198,801.8315
784.90845,793.7729,794.9817,801.02563
807.8755,804.2491,789.7436,809.4872
805.4579,799.011,790.9524,801.8315
784.90845,790.54944,795.38464,797.3993
792.1612,789.34064,794.57874,801.4286
796.5934,791.75824,788.5348,790.14655
794.9817,784.5055,784.90845,785.31134
799.41394,795.78754,794.9817,802.23444
792.5641,785.7143,790.9524,797.8022
796.99634,795.78754,791.3553,797.3993
795.78754,795.78754,789.34064,801.02563
795.38464,795.78754,786.9231,803.44324
786.9231,790.54944,787.326,800.2198
782.8938,787.72894,789.34064,792.5641
788.1319,783.69965,787.326,783.2967
799.41394,784.5055,784.90845,778.0586
784.90845,789.7436,785.7143,780.07324
766.3736,794.17584,789.34064,786.52014
770.40295,796.1905,797.3993,784.10254
785.31134,796.1905,796.99634,783.2967
791.75824,796.99634,793.36993,794.17584
782.49084,795.78754,794.57874,792.96704
788.5348,804.2491,790.14655,789.7436
791.3553,806.6667,788.5348,796.5934
785.7143,796.1905,788.93774,795.38464
792.5641,794.57874,787.326,785.31134
792.5641,800.2198,788.5348,781.685
786.1172,801.4286,790.54944,790.14655
789.7436,802.6374,793.36993,800.2198
791.3553,805.8608,799.41394,800.2198
797.8022,792.5641,794.9817,787.72894
817.5458,794.57874,801.02563,793.7729
798.20514,792.5641,792.5641,803.8461
811.0989,793.36993,797.8022,797.8022
796.1905,796.99634,793.7729,794.17584
792.96704,799.011,799.011,793.7729
791.3553,793.36993,790.14655,780.07324
794.9817,789.34064,790.54944,787.72894
794.57874,794.9817,794.57874,793.7729
811.9048,799.41394,798.60803,798.60803
802.6374,792.96704,797.8022,797.3993
770.40295,788.1319,796.5934,782.0879
782.49084,794.9817,799.81683,778.86444
784.10254,800.6227,799.41394,789.34064
783.2967,796.5934,795.78754,797.8022
796.5934,792.96704,794.57874,803.0403
791.75824,798.60803,785.31134,780.4762
786.1172,797.3993,783.69965,777.25275
778.46155,796.99634,789.34064,780.87915
776.4469,790.54944,787.326,784.5055
776.8498,785.7143,788.93774,782.0879
777.25275,787.72894,791.75824,785.7143
793.36993,796.5934,792.1612,793.36993
791.3553,786.9231,788.5348,787.326
811.9048,791.75824,790.9524,802.23444
798.20514,799.41394,795.78754,809.0842
794.57874,796.1905,794.57874,788.1319
783.2967,794.9817,792.5641,791.3553
781.28204,792.5641,790.14655,783.69965
787.326,787.326,785.31134,784.5055
802.23444,790.9524,788.1319,802.23444
811.50183,797.3993,790.54944,796.99634
808.2784,799.41394,794.57874,789.34064
805.8608,791.3553,796.5934,786.1172
797.3993,792.96704,790.54944,783.69965
814.3223,791.3553,792.96704,785.31134
796.5934,791.75824,789.34064,788.1319
789.7436,789.34064,785.7143,785.7143
796.5934,794.57874,787.72894,789.7436
784.5055,792.5641,786.52014,788.5348
775.64105,789.7436,784.5055,770.40295
803.8461,787.326,783.69965,774.83514
813.91943,786.9231,778.86444,788.1319
783.2967,790.54944,780.87915,775.64105
782.0879,790.54944,788.1319,772.01465
784.90845,788.93774,788.93774,772.01465
774.43225,782.8938,786.1172,776.4469
775.64105,784.5055,792.5641,784.90845
786.1172,786.9231,793.36993,795.38464
785.31134,792.5641,792.1612,793.36993
794.57874,797.8022,789.7436,788.5348
786.9231,787.326,793.36993,787.72894
802.23444,798.20514,793.7729,792.1612
801.02563,793.7729,794.9817,789.34064
801.02563,791.3553,797.3993,793.7729
825.6044,796.99634,799.011,805.4579
830.0366,801.02563,796.99634,803.8461
805.4579,798.20514,792.96704,799.011
789.34064,792.1612,793.7729,801.02563
796.1905,792.96704,800.6227,802.23444
803.8461,797.8022,802.23444,801.02563
803.8461,801.02563,799.011,804.65204
799.81683,801.02563,795.78754,801.8315
783.2967,793.7729,801.02563,795.78754
785.31134,788.1319,792.5641,788.93774
801.02563,804.2491,795.78754,803.44324
789.7436,792.96704,788.5348,786.9231
799.011,798.60803,802.6374,801.8315
793.7729,797.8022,787.72894,799.011
805.05493,800.2198,792.96704,802.23444
809.0842,798.60803,799.41394,796.5934
793.7729,800.2198,800.2198,793.36993
774.43225,790.9524,791.3553,776.04395
782.49084,790.14655,788.93774,780.4762
801.8315,797.8022,794.9817,787.72894
803.44324,794.17584,791.75824,781.28204
785.31134,796.99634,791.3553,790.54944
789.7436,797.8022,792.5641,793.36993
798.60803,792.96704,792.5641,795.38464
794.57874,791.3553,793.36993,792.5641
787.326,790.54944,791.75824,784.10254
787.72894,792.1612,790.9524,780.4762
791.3553,792.1612,788.1319,782.8938
799.81683,790.54944,784.5055,787.72894
798.20514,787.72894,785.7143,787.72894
807.8755,786.52014,782.49084,788.5348
798.20514,781.685,782.49084,776.4469
794.9817,786.52014,787.326,791.75824
786.52014,783.2967,786.1172,779.2674
803.44324,784.10254,791.75824,793.7729
794.57874,780.4762,789.7436,786.1172
799.81683,788.93774,789.7436,785.31134
810.293,780.07324,790.54944,792.1612
807.0696,786.52014,794.57874,790.9524
813.5165,783.2967,787.326,795.38464
793.7729,787.72894,786.52014,792.5641
790.9524,787.72894,792.1612,793.36993
782.8938,783.69965,792.5641,783.69965
780.87915,793.36993,789.34064,786.1172
783.2967,795.38464,794.17584,778.0586
773.22345,791.75824,793.7729,779.2674
784.10254,792.5641,790.9524,788.5348
788.5348,796.99634,790.54944,793.7729
792.1612,795.78754,792.5641,780.87915
796.5934,794.17584,794.17584,776.04395
773.6264,786.9231,786.1172,782.0879
788.5348,794.17584,795.38464,783.2967
790.54944,788.93774,791.3553,786.1172
807.0696,785.31134,790.14655,796.5934
833.2601,786.9231,788.93774,801.02563
821.1722,783.69965,789.34064,798.60803
787.72894,779.67035,787.72894,790.54944
782.0879,782.49084,786.52014,790.54944
786.1172,788.1319,788.5348,799.011
796.99634,791.3553,788.93774,800.6227
809.89014,790.14655,790.9524,807.0696
804.2491,788.1319,795.38464,804.65204
798.20514,783.2967,792.96704,801.02563
790.54944,781.685,786.1172,800.6227
789.34064,785.31134,786.52014,801.4286
809.0842,791.75824,790.14655,801.4286
810.696,796.99634,793.7729,804.2491
798.60803,793.36993,793.7729,797.8022
801.02563,791.3553,791.3553,793.7729
804.2491,795.78754,793.36993,794.17584
820.7692,794.17584,792.5641,784.90845
809.89014,788.93774,791.75824,784.90845
791.3553,790.54944,792.96704,787.72894
803.0403,795.38464,793.36993,782.49084
790.14655,799.41394,791.75824,776.04395
782.0879,800.2198,793.7729,776.8498
785.7143,804.65204,793.7729,776.4469
791.75824,807.0696,791.3553,784.90845
786.9231,794.17584,790.54944,791.75824
788.5348,796.5934,793.7729,803.8461
798.60803,790.9524,788.1319,806.6667
801.4286,799.011,787.72894,797.3993
795.78754,791.75824,784.5055,792.1612
806.6667,786.52014,787.326,812.3077
814.7253,798.60803,799.011,812.3077
812.3077,796.99634,801.02563,807.47253
814.3223,790.14655,793.36993,815.9341
817.1429,790.9524,797.3993,799.41394
800.2198,788.93774,793.36993,797.8022
788.1319,789.7436,792.96704,801.02563
788.5348,793.7729,794.9817,805.05493
777.25275,795.78754,796.1905,796.99634
775.2381,795.38464,796.99634,790.9524
796.5934,796.5934,791.3553,792.1612
790.54944,794.57874,785.7143,785.31134
773.6264,790.54944,789.7436,782.0879
775.2381,790.54944,794.9817,782.8938
782.8938,789.34064,794.57874,776.8498
785.7143,788.93774,793.36993,779.67035
788.1319,793.36993,794.57874,789.34064
788.1319,791.3553,794.57874,790.14655
786.1172,782.8938,796.99634,790.54944
808.68134,790.14655,797.8022,807.47253
784.90845,788.93774,790.9524,807.47253
793.7729,797.8022,792.5641,805.05493
802.6374,799.41394,796.99634,805.4579
806.6667,786.9231,800.6227,797.3993
801.02563,791.75824,797.3993,799.81683
794.17584,791.75824,794.17584,795.78754
799.81683,784.10254,790.54944,803.8461
805.8608,782.8938,791.3553,803.8461
791.75824,791.3553,793.36993,803.8461
805.05493,784.90845,790.14655,798.60803
810.293,784.90845,783.69965,798.60803
787.72894,788.93774,786.1172,801.02563
789.34064,790.54944,788.93774,774.0293
784.90845,791.3553,791.3553,783.69965
794.9817,792.96704,788.93774,774.83514
799.011,784.10254,786.9231,778.46155
802.23444,787.72894,789.7436,779.67035
800.6227,791.75824,787.326,766.3736
810.696,794.57874,789.34064,763.1502
796.5934,792.5641,788.5348,765.9707
803.44324,796.1905,788.1319,760.32965
786.9231,795.38464,790.14655,775.64105
803.8461,794.9817,798.20514,788.93774
799.81683,790.9524,795.78754,794.17584
793.36993,786.52014,788.5348,794.9817
788.1319,786.52014,792.5641,793.7729
788.93774,790.9524,793.36993,796.99634
795.78754,790.9524,792.1612,801.4286
793.7729,789.7436,792.96704,800.6227
795.38464,789.7436,791.3553,797.8022
801.02563,790.9524,790.9524,796.99634
804.65204,788.5348,794.57874,796.99634
807.8755,785.7143,796.5934,789.7436
801.8315,786.9231,796.5934,787.72894
799.011,793.36993,790.9524,788.93774
818.3516,801.02563,791.3553,794.17584
818.3516,793.36993,792.96704,794.17584
789.34064,786.52014,788.5348,780.87915
777.6557,788.5348,787.72894,772.8205
786.52014,790.9524,788.5348,772.4176
785.31134,786.9231,787.326,771.6117
792.96704,783.69965,790.14655,773.22345
807.47253,795.38464,795.78754,778.86444
804.65204,788.5348,796.99634,782.0879
804.2491,799.81683,787.72894,770.80585
779.2674,803.44324,786.52014,769.59705
770.80585,801.8315,786.9231,762.74725
789.34064,797.3993,783.69965,761.13556
785.31134,795.38464,784.5055,772.4176
790.14655,800.2198,791.75824,786.52014
801.8315,806.6667,791.75824,796.99634
787.72894,801.02563,787.326,801.4286
794.17584,795.78754,786.1172,802.6374
809.4872,790.14655,786.52014,796.99634
790.14655,784.10254,788.5348,796.1905
782.0879,786.52014,795.38464,805.8608
789.7436,791.3553,798.20514,811.0989
792.96704,794.17584,797.3993,803.44324
804.65204,792.96704,796.99634,793.36993
794.57874,788.93774,790.54944,784.90845
794.9817,792.5641,789.7436,789.7436
809.4872,794.57874,796.99634,789.34064
804.65204,801.8315,802.6374,784.5055
796.1905,799.41394,799.011,784.5055
792.5641,785.31134,791.75824,782.49084
801.8315,784.5055,788.5348,790.9524
796.99634,787.72894,789.7436,791.75824
780.07324,786.1172,786.52014,789.34064
784.5055,783.2967,784.5055,784.10254
788.1319,784.5055,784.90845,776.04395
782.0879,786.52014,785.31134,780.87915
801.02563,789.34064,789.7436,773.6264
781.685,788.93774,788.1319,777.25275
799.011,790.54944,794.57874,796.5934
824.7985,784.90845,793.36993,784.5055
773.6264,792.1612,789.34064,795.78754
774.43225,779.67035,792.1612,784.90845
771.2088,781.685,786.9231,779.67035
778.86444,784.10254,788.5348,782.8938
769.19415,782.8938,784.10254,778.86444
775.2381,780.4762,787.326,786.52014
780.07324,782.8938,792.1612,787.72894
778.86444,781.685,792.96704,790.54944
785.31134,782.49084,792.96704,794.9817
790.54944,782.49084,795.78754,798.60803
789.34064,781.28204,796.5934,799.81683
793.7729,789.34064,792.1612,798.20514
803.44324,793.7729,787.326,796.99634
812.3077,789.34064,785.31134,800.2198
803.8461,788.1319,788.1319,800.2198
803.0403,791.3553,788.5348,801.02563
813.91943,793.7729,791.75824,803.44324
811.0989,793.36993,794.57874,799.011
807.47253,794.17584,793.7729,803.8461
801.8315,793.7729,794.57874,802.23444
791.75824,791.3553,795.78754,794.57874
787.72894,790.54944,795.38464,792.96704
789.34064,791.3553,798.60803,796.5934
804.65204,793.36993,796.5934,800.6227
803.0403,790.14655,791.75824,796.1905
784.5055,786.52014,789.7436,796.99634
801.02563,786.1172,790.14655,793.36993
801.4286,788.93774,791.3553,792.1612
782.49084,793.7729,785.31134,791.75824
783.2967,792.5641,784.10254,781.685
788.5348,792.96704,793.7729,787.72894
788.5348,796.1905,794.9817,796.1905
796.1905,799.41394,788.5348,793.7729
809.0842,795.78754,786.9231,786.52014
794.9817,789.7436,789.7436,790.54944
786.9231,795.38464,796.1905,799.81683
793.36993,793.36993,794.57874,798.20514
793.7729,789.7436,790.14655,794.57874
793.7729,792.1612,793.7729,797.8022
801.02563,792.1612,795.78754,799.81683
803.0403,791.75824,793.36993,798.20514
800.6227,791.75824,794.9817,803.0403
802.6374,792.5641,796.99634,801.8315
806.6667,794.57874,796.5934,800.2198
814.3223,792.1612,796.99634,794.57874
810.293,791.3553,794.9817,790.54944
795.78754,797.8022,794.57874,793.7729
797.8022,805.05493,799.41394,796.99634
813.5165,804.2491,797.8022,801.02563
809.89014,794.9817,794.57874,792.96704
800.6227,787.326,794.9817,790.14655
813.1135,785.7143,801.8315,792.5641
809.4872,793.36993,806.26373,788.93774
797.8022,799.011,801.02563,792.5641
802.23444,796.99634,795.38464,795.78754
798.20514,796.1905,794.17584,793.36993
782.0879,795.38464,789.34064,790.54944
782.49084,793.7729,789.7436,792.1612
786.9231,793.7729,792.5641,784.90845
786.9231,792.5641,788.1319,774.0293
796.99634,787.72894,788.1319,779.67035
793.36993,787.72894,793.36993,786.9231
790.54944,788.93774,789.7436,780.07324
788.93774,787.326,786.9231,780.07324
791.3553,788.93774,791.3553,787.72894
800.6227,785.31134,788.1319,791.3553
800.6227,782.8938,792.96704,796.5934
794.17584,786.52014,794.9817,798.20514
798.20514,789.7436,792.96704,799.011
799.41394,792.96704,794.57874,801.4286
792.96704,791.3553,786.52014,794.17584
788.1319,790.14655,784.5055,785.31134
830.0366,786.9231,791.3553,796.5934
806.6667,786.52014,789.7436,788.1319
786.1172,788.1319,793.36993,787.326
796.1905,794.57874,796.1905,794.17584
808.2784,790.54944,789.34064,790.9524
792.1612,793.7729,794.17584,792.1612
786.1172,786.9231,792.96704,794.17584
793.36993,788.93774,792.96704,800.6227
794.9817,789.7436,798.60803,804.65204
808.68134,792.1612,799.011,801.02563
796.99634,794.9817,795.38464,795.38464
780.07324,794.17584,794.17584,797.8022
797.3993,780.07324,793.36993,780.4762
790.14655,780.87915,793.36993,781.28204
816.7399,782.0879,794.57874,780.4762
812.3077,787.326,791.75824,781.28204
798.60803,787.326,793.36993,788.93774
782.8938,788.1319,786.9231,784.90845
786.52014,788.5348,790.9524,786.1172
794.57874,788.5348,790.9524,784.5055
788.1319,785.7143,785.7143,785.31134
784.90845,784.90845,785.31134,783.69965
788.93774,782.49084,792.1612,787.326
791.3553,786.1172,793.36993,796.1905
802.6374,785.31134,790.9524,795.78754
801.4286,779.67035,791.75824,797.3993
795.78754,787.326,791.75824,788.5348
805.4579,794.57874,792.1612,786.9231
807.8755,790.9524,792.5641,790.9524
798.60803,790.14655,796.99634,789.7436
789.7436,792.1612,803.44324,795.38464
786.1172,790.9524,803.8461,796.1905
791.75824,789.7436,799.41394,800.6227
782.49084,792.96704,795.78754,797.3993
784.90845,791.3553,792.5641,794.57874
807.8755,796.99634,795.38464,807.8755
809.89014,796.99634,792.5641,803.8461
817.9487,790.14655,791.3553,801.02563
823.5897,793.36993,798.60803,798.20514
794.57874,790.9524,796.5934,791.3553
780.07324,787.326,796.1905,797.8022
795.38464,787.326,798.20514,799.41394
799.011,790.14655,794.17584,796.5934
796.99634,790.14655,790.54944,799.41394
792.1612,787.72894,786.9231,797.8022
778.0586,782.49084,787.72894,788.5348
775.2381,776.4469,793.36993,786.52014
774.0293,784.90845,792.5641,793.36993
784.10254,794.57874,789.7436,799.011
800.2198,793.7729,791.75824,794.57874
803.8461,790.14655,790.14655,792.96704
801.4286,788.5348,791.3553,797.8022
792.5641,786.9231,792.96704,795.78754
794.9817,789.7436,793.36993,793.36993
802.6374,791.75824,791.75824,798.20514
786.52014,786.52014,790.14655,799.011
786.9231,790.14655,792.96704,791.3553
817.1429,794.9817,791.3553,797.3993
814.7253,796.5934,789.34064,801.4286
803.44324,800.6227,791.75824,791.75824
826.4103,802.23444,790.9524,799.011
827.2161,798.60803,794.57874,810.293
811.0989,800.2198,797.8022,800.2198
797.3993,796.5934,795.78754,791.3553
797.3993,793.36993,794.9817,798.60803
798.20514,792.1612,790.54944,801.02563
793.36993,791.75824,784.10254,789.34064
796.99634,797.3993,784.5055,786.9231
788.5348,798.60803,785.31134,791.3553
791.75824,796.99634,788.93774,794.57874
796.5934,797.8022,792.1612,796.1905
792.1612,799.81683,791.75824,796.99634
795.38464,793.7729,791.3553,796.1905
796.5934,787.326,793.7729,794.9817
804.65204,786.9231,790.14655,792.1612
809.89014,794.9817,799.81683,794.17584
811.50183,788.1319,790.54944,791.3553
802.6374,796.5934,799.81683,789.34064
800.6227,788.5348,792.1612,786.52014
801.02563,783.69965,788.1319,786.1172
803.0403,788.5348,788.93774,783.2967
809.89014,798.60803,794.57874,783.69965
794.9817,796.5934,796.5934,785.31134
774.43225,789.34064,792.96704,782.8938
779.67035,788.1319,792.1612,787.326
781.685,779.2674,788.93774,793.36993
783.2967,783.2967,792.96704,785.7143
792.96704,796.1905,798.60803,784.90845
804.2491,797.8022,795.38464,790.9524
808.68134,793.7729,790.54944,792.1612
798.20514,795.78754,797.3993,791.75824
799.81683,792.96704,793.36993,791.75824
804.2491,792.1612,796.99634,794.9817
815.5311,782.49084,790.14655,794.57874
802.6374,781.685,786.1172,788.5348
788.5348,786.1172,794.17584,790.54944
788.93774,781.685,796.1905,785.7143
792.96704,780.4762,789.7436,787.326
795.38464,790.54944,794.57874,797.3993
806.26373,794.57874,802.6374,798.60803
800.2198,788.1319,799.81683,794.9817
792.1612,789.7436,797.3993,794.57874
796.5934,796.5934,799.41394,793.36993
803.8461,794.9817,796.1905,794.17584
794.9817,794.57874,798.20514,792.96704
817.1429,802.23444,801.02563,796.5934
802.6374,802.6374,802.23444,802.6374
785.31134,803.0403,798.60803,801.02563
796.99634,804.2491,799.81683,798.20514
808.2784,789.34064,789.34064,794.9817
802.6374,793.7729,794.9817,795.38464
805.4579,797.8022,792.96704,807.0696
801.02563,803.0403,796.1905,807.47253
790.14655,803.0403,798.20514,795.38464
790.14655,802.23444,797.3993,791.75824
806.6667,803.44324,794.9817,796.99634
812.71063,802.6374,794.9817,806.6667
811.50183,800.2198,799.011,806.26373
794.17584,798.20514,797.8022,797.8022
793.36993,802.23444,793.7729,790.9524
805.8608,807.0696,794.9817,786.1172
795.78754,794.57874,790.9524,784.90845
787.72894,785.7143,788.1319,782.8938
784.5055,792.96704,791.75824,784.90845
796.5934,796.99634,791.75824,790.14655
818.7546,796.1905,790.54944,790.14655
807.47253,794.9817,794.57874,782.8938
781.28204,795.78754,796.5934,784.5055
772.01465,795.78754,796.1905,781.28204
778.46155,794.57874,794.57874,775.64105
787.326,792.5641,794.17584,784.5055
783.2967,795.78754,796.99634,792.1612
772.01465,792.5641,795.38464,785.31134
776.04395,786.52014,790.9524,786.52014
786.9231,794.9817,793.7729,795.38464
786.1172,791.3553,790.54944,785.31134
782.49084,781.28204,787.326,774.83514
791.3553,783.2967,792.96704,785.31134
796.1905,796.99634,802.23444,794.17584
792.1612,797.8022,791.75824,787.72894
790.9524,800.2198,789.34064,780.4762
797.3993,801.02563,791.3553,790.54944
810.293,805.4579,792.96704,797.3993
803.8461,799.011,791.75824,798.60803
794.57874,788.93774,795.38464,801.02563
805.4579,789.7436,795.78754,794.57874
825.2015,793.36993,788.1319,794.9817
821.1722,800.6227,788.5348,792.96704
801.8315,805.4579,788.5348,788.5348
801.8315,791.3553,802.23444,796.1905
802.6374,806.6667,788.5348,788.93774
796.99634,795.38464,787.326,792.1612
805.4579,799.011,788.1319,792.1612
796.99634,794.17584,786.1172,788.1319
798.60803,796.5934,785.31134,791.75824
794.17584,803.44324,785.7143,794.17584
796.99634,797.3993,783.69965,794.9817
801.02563,791.75824,784.5055,799.011
803.0403,794.17584,790.14655,794.9817
793.7729,797.8022,791.75824,787.72894
784.5055,792.1612,785.7143,783.69965
792.1612,790.9524,785.7143,783.2967
784.90845,790.54944,786.52014,782.49084
797.8022,798.60803,789.34064,774.43225
805.8608,790.9524,783.2967,780.07324
802.23444,788.1319,783.69965,788.1319
784.90845,795.38464,786.9231,774.83514
795.38464,792.5641,785.31134,789.34064
782.49084,793.7729,782.8938,780.4762
780.07324,788.1319,791.3553,781.685
778.46155,789.34064,792.1612,789.34064
787.326,794.17584,788.1319,796.5934
793.7729,792.1612,785.31134,796.5934
774.43225,788.93774,783.2967,784.5055
772.4176,789.34064,787.72894,778.86444
798.60803,789.34064,788.93774,785.7143
809.4872,792.5641,790.9524,788.1319
794.57874,794.9817,790.54944,788.1319
795.38464,794.57874,788.5348,791.75824
802.23444,792.1612,794.17584,795.78754
805.8608,796.99634,799.81683,801.02563
809.4872,796.99634,792.96704,801.4286
796.99634,790.9524,784.5055,797.3993
789.7436,791.75824,786.52014,803.0403
794.9817,794.17584,791.3553,807.0696
790.9524,789.34064,791.3553,801.8315
787.72894,790.54944,788.5348,796.99634
796.99634,792.96704,790.14655,796.99634
805.05493,792.5641,790.54944,801.4286
805.05493,792.1612,790.9524,802.23444
813.1135,795.38464,793.36993,796.5934
798.20514,801.4286,794.9817,790.54944
788.93774,801.02563,792.5641,794.57874
795.38464,797.3993,791.75824,801.8315
789.7436,789.34064,792.5641,799.81683
795.38464,787.72894,794.57874,796.5934
800.6227,789.34064,794.9817,800.2198
793.7729,790.9524,790.54944,799.81683
791.3553,792.96704,791.3553,789.34064
786.9231,794.17584,796.1905,784.90845
788.93774,793.36993,799.011,789.34064
795.38464,792.1612,798.20514,789.34064
796.99634,800.6227,794.57874,786.52014
794.9817,805.4579,794.57874,790.9524
796.5934,798.60803,791.3553,793.7729
804.65204,791.3553,786.52014,794.9817
797.8022,789.34064,787.72894,789.34064
794.57874,793.7729,790.9524,788.93774
796.99634,784.5055,784.90845,796.5934
799.011,788.93774,789.34064,796.99634
799.011,788.5348,788.1319,795.78754
792.5641,785.7143,789.7436,786.9231
791.75824,783.69965,786.52014,781.685
783.2967,784.10254,787.72894,782.8938
781.685,787.326,787.72894,783.2967
783.2967,794.17584,785.7143,780.87915
787.72894,792.1612,782.8938,781.685
804.2491,784.5055,786.1172,780.87915
800.2198,787.326,790.54944,773.22345
788.5348,790.54944,787.72894,782.8938
784.5055,794.9817,789.34064,796.5934
796.99634,801.4286,785.31134,795.78754
795.78754,794.9817,779.67035,789.7436
789.34064,786.9231,784.10254,781.28204
792.96704,790.9524,790.14655,776.4469
789.34064,790.9524,787.326,777.25275
792.1612,784.90845,786.1172,780.87915
802.23444,792.1612,792.1612,792.96704
807.0696,792.5641,788.93774,799.011
802.6374,788.1319,784.90845,796.99634
793.36993,792.96704,789.7436,791.75824
782.49084,780.87915,793.36993,789.7436
790.54944,784.5055,794.9817,801.02563
787.326,787.326,789.7436,787.326
796.5934,782.8938,792.1612,806.26373
791.3553,780.87915,794.17584,800.2198
836.08057,790.54944,790.9524,802.6374
821.5751,789.7436,785.7143,798.20514
794.57874,789.7436,784.10254,789.34064
809.89014,784.5055,792.1612,796.99634
790.9524,790.54944,790.9524,790.14655
792.96704,782.49084,795.78754,794.17584
791.75824,783.2967,798.60803,790.54944
794.9817,786.9231,797.8022,788.1319
795.38464,786.52014,794.17584,790.54944
784.90845,786.9231,791.75824,788.93774
785.7143,790.9524,789.7436,786.9231
790.14655,790.9524,791.3553,780.87915
782.0879,787.326,790.9524,771.6117
774.83514,780.4762,786.9231,769.19415
769.59705,781.28204,786.9231,777.25275
774.83514,790.54944,794.9817,786.52014
780.07324,783.69965,794.57874,781.28204
788.5348,771.2088,790.54944,775.64105
788.1319,777.25275,791.3553,787.72894
791.3553,780.87915,793.36993,800.6227
811.0989,784.90845,795.78754,805.05493
807.47253,792.5641,792.1612,802.6374
805.05493,790.54944,792.5641,801.8315
807.0696,792.1612,791.75824,800.6227
815.9341,795.78754,792.5641,788.1319
831.2454,794.57874,797.8022,787.72894
823.1868,795.38464,801.02563,796.1905
807.8755,803.0403,801.4286,796.1905
801.8315,798.20514,795.78754,793.36993
795.78754,791.75824,790.14655,790.54944
793.36993,791.3553,788.5348,786.52014
790.14655,787.72894,786.1172,779.67035
787.326,786.1172,787.326,781.28204
791.75824,788.1319,786.9231,782.49084
795.38464,792.96704,786.1172,786.9231
788.5348,794.17584,792.1612,793.36993
778.86444,796.1905,795.38464,790.54944
782.0879,805.8608,793.36993,795.38464
786.1172,803.8461,796.5934,797.3993
778.46155,808.2784,792.1612,800.2198
784.90845,804.2491,799.011,802.23444
780.87915,792.96704,798.20514,790.9524
785.7143,791.3553,793.7729,790.9524
798.60803,797.3993,794.17584,793.7729
797.3993,807.47253,796.99634,796.1905
799.41394,801.02563,797.8022,793.7729
804.65204,790.54944,798.20514,798.60803
804.65204,788.5348,795.78754,801.02563
800.6227,784.90845,792.96704,793.7729
797.3993,782.0879,792.5641,784.90845
808.2784,790.54944,797.3993,788.5348
824.3956,801.4286,801.02563,796.99634
809.89014,796.5934,799.81683,796.99634
781.685,785.7143,796.99634,794.17584
783.69965,788.93774,794.17584,785.31134
797.8022,790.54944,790.14655,779.2674
801.8315,789.34064,790.9524,794.57874
796.1905,793.36993,794.17584,802.6374
796.1905,791.3553,795.38464,795.78754
801.4286,791.3553,790.54944,793.7729
800.2198,793.7729,788.93774,792.1612
797.3993,792.5641,792.1612,787.72894
793.7729,787.72894,790.9524,782.8938
784.90845,789.34064,792.1612,784.10254
778.46155,790.54944,792.96704,784.5055
779.67035,787.326,797.8022,793.36993
796.1905,790.54944,799.011,799.011
795.78754,793.7729,791.75824,788.1319
788.5348,794.17584,787.72894,786.9231
796.5934,786.52014,785.31134,786.52014
786.1172,780.4762,784.90845,782.8938
786.52014,780.87915,789.34064,783.69965
791.3553,787.326,790.9524,789.34064
794.9817,792.5641,793.7729,799.011
800.6227,789.34064,791.3553,796.5934
804.65204,792.96704,790.54944,794.57874
818.3516,790.14655,797.8022,802.6374
807.0696,780.4762,796.99634,803.0403
786.9231,786.9231,795.78754,799.41394
790.54944,792.1612,790.54944,791.75824
795.38464,789.34064,786.1172,786.1172
789.7436,794.17584,791.3553,793.36993
791.75824,794.57874,790.14655,790.14655
794.57874,790.54944,786.9231,784.90845
791.3553,793.7729,781.685,790.14655
802.23444,793.36993,778.86444,796.5934
796.1905,791.75824,783.69965,799.011
795.78754,799.41394,790.54944,806.6667
802.6374,799.011,791.3553,805.05493
804.65204,789.7436,783.69965,795.38464
800.2198,785.31134,781.685,792.5641
787.72894,785.7143,787.326,792.96704
790.54944,789.34064,794.17584,796.99634
793.36993,786.52014,796.99634,793.7729
792.5641,785.7143,792.96704,799.81683
789.7436,792.1612,787.326,799.41394
790.9524,798.60803,790.14655,789.34064
795.38464,794.9817,794.57874,792.1612
795.38464,786.1172,793.36993,788.93774
811.0989,799.41394,790.14655,790.9524
794.17584,792.96704,790.54944,789.34064
791.3553,798.20514,795.78754,788.1319
791.75824,791.3553,795.78754,786.1172
783.69965,786.52014,791.75824,784.90845
793.7729,794.17584,788.1319,790.14655
803.44324,795.78754,792.1612,784.90845
799.81683,795.38464,786.52014,790.9524
798.60803,796.99634,792.1612,789.34064
796.99634,796.5934,789.7436,783.2967
789.34064,797.3993,785.7143,783.69965
788.1319,798.20514,786.9231,782.8938
796.5934,799.81683,787.72894,790.54944
799.011,793.7729,787.326,801.02563
796.5934,786.9231,787.72894,802.6374
797.8022,791.3553,790.54944,809.4872
804.65204,791.75824,788.5348,805.8608
800.6227,789.7436,782.0879,795.38464
799.41394,794.9817,786.1172,799.011
800.2198,796.1905,794.57874,803.44324
810.696,792.1612,794.17584,809.0842
811.9048,790.54944,789.7436,818.3516
792.5641,790.14655,784.90845,807.0696
787.72894,789.7436,788.93774,786.1172
793.7729,796.5934,794.17584,788.1319
794.17584,794.9817,791.75824,784.5055
788.1319,789.34064,789.34064,781.685
791.75824,795.78754,790.14655,789.34064
800.6227,797.8022,794.9817,794.57874
793.36993,796.1905,797.3993,799.81683
792.96704,794.9817,793.7729,795.78754
805.8608,797.8022,791.3553,788.1319
801.8315,800.2198,789.7436,789.34064
801.4286,796.99634,797.8022,798.20514
798.60803,798.60803,795.78754,795.78754
801.8315,794.57874,791.75824,796.5934
797.8022,799.81683,794.9817,799.41394
794.57874,798.60803,794.17584,805.4579
791.75824,794.9817,792.1612,798.60803
790.54944,791.3553,793.7729,798.60803
790.14655,787.326,794.9817,797.8022
797.8022,786.52014,795.78754,792.5641
805.05493,786.52014,794.57874,795.78754
807.0696,790.54944,792.5641,795.38464
792.5641,790.54944,793.7729,793.36993
780.87915,793.7729,794.57874,799.41394
785.7143,796.1905,791.3553,802.6374
791.3553,797.8022,787.72894,794.9817
798.20514,803.0403,784.90845,793.36993
808.2784,798.60803,783.2967,794.17584
797.8022,791.3553,786.9231,794.9817
783.69965,788.93774,787.326,794.9817
792.96704,788.5348,785.7143,794.9817
792.1612,793.36993,786.52014,804.65204
789.34064,795.78754,786.1172,794.57874
796.99634,796.5934,788.1319,784.90845
789.34064,792.5641,788.93774,789.34064
789.34064,788.5348,784.90845,788.93774
803.44324,796.1905,784.5055,792.96704
797.3993,795.78754,787.72894,790.54944
800.2198,799.011,794.17584,791.75824
812.3077,803.44324,796.99634,792.96704
816.337,788.1319,788.1319,795.38464
807.47253,780.87915,781.685,798.20514
790.54944,790.9524,784.5055,790.9524
785.7143,795.78754,783.2967,785.31134
792.5641,794.57874,786.52014,784.5055
793.36993,793.7729,786.1172,785.7143
788.5348,794.9817,781.28204,796.5934
779.67035,793.36993,787.326,796.99634
784.5055,795.38464,788.5348,792.96704
786.1172,796.99634,786.9231,794.17584
782.49084,798.60803,790.54944,787.72894
788.1319,794.9817,784.90845,787.326
783.2967,786.9231,784.10254,790.14655
794.9817,793.7729,794.9817,794.17584
807.0696,794.9817,795.38464,799.41394
799.011,790.54944,788.5348,796.5934
