eeg_1,eeg_2,eeg_3,eeg_4
807.47253,797.8022,803.8461,807.8755
814.7253,806.26373,810.696,814.7253
820.3663,811.50183,819.15753,817.9487
811.0989,803.8461,811.50183,813.1135
803.44324,796.1905,803.0403,805.05493
803.8461,794.17584,801.8315,806.6667
807.0696,800.6227,808.68134,806.26373
814.3223,812.3077,819.5604,805.05493
818.3516,810.696,815.12823,809.89014
811.50183,800.2198,807.0696,811.50183
813.91943,802.6374,807.47253,819.9634
818.3516,809.4872,808.2784,823.9927
823.1868,816.337,811.9048,819.15753
819.5604,812.3077,808.2784,813.91943
803.8461,796.1905,798.20514,804.65204
792.96704,785.7143,788.1319,796.1905
801.4286,794.57874,791.75824,801.02563
814.7253,813.1135,802.6374,807.47253
812.3077,814.3223,799.81683,804.2491
798.20514,797.8022,787.72894,793.36993
795.78754,792.1612,788.5348,792.1612
805.4579,801.4286,798.60803,802.23444
811.9048,809.4872,801.4286,805.4579
811.0989,812.71063,804.2491,803.0403
799.81683,800.6227,800.2198,794.9817
793.7729,794.17584,793.36993,790.9524
799.41394,802.23444,798.60803,798.20514
802.6374,810.293,803.8461,796.99634
801.4286,813.5165,803.44324,787.326
798.20514,806.6667,802.23444,786.9231
798.60803,802.6374,801.4286,789.34064
799.81683,802.6374,796.5934,786.1172
808.2784,807.8755,801.02563,789.34064
819.5604,815.12823,805.8608,801.4286
813.5165,809.0842,799.011,803.44324
805.4579,800.6227,798.20514,802.6374
807.0696,797.8022,798.20514,806.6667
813.1135,805.4579,801.02563,813.91943
816.337,810.293,804.65204,813.5165
817.9487,799.41394,800.6227,805.4579
806.6667,784.5055,788.5348,797.8022
809.4872,789.34064,788.93774,800.2198
820.7692,800.2198,798.20514,804.2491
821.978,805.05493,804.65204,810.696
820.3663,807.8755,807.47253,813.91943
812.71063,801.02563,799.81683,809.0842
810.696,792.96704,794.9817,807.8755
813.1135,798.60803,799.41394,806.6667
819.15753,813.91943,814.7253,805.8608
819.5604,813.91943,817.5458,805.8608
807.8755,802.6374,804.65204,797.8022
796.5934,798.60803,799.41394,793.7729
798.60803,801.02563,802.6374,793.7729
805.8608,799.41394,800.6227,788.1319
799.41394,798.60803,795.38464,781.685
792.5641,790.9524,794.57874,780.4762
793.36993,784.10254,792.1612,781.685
796.1905,788.93774,794.57874,782.8938
801.8315,793.36993,799.011,786.52014
810.696,800.6227,802.23444,792.5641
806.6667,796.1905,798.60803,793.7729
801.02563,790.14655,794.9817,798.60803
812.71063,804.65204,801.02563,807.47253
815.5311,809.89014,801.8315,806.26373
806.6667,798.60803,794.9817,800.6227
798.20514,789.7436,785.7143,788.93774
799.41394,788.93774,785.7143,791.75824
804.2491,791.3553,790.14655,794.17584
799.81683,794.57874,796.1905,786.9231
804.2491,794.9817,794.9817,788.1319
792.5641,790.14655,783.2967,780.4762
787.72894,786.1172,780.07324,782.49084
806.6667,794.17584,798.60803,807.8755
783.69965,785.31134,787.326,788.1319
791.3553,791.3553,791.3553,770.40295
789.7436,783.69965,789.7436,771.2088
795.78754,792.96704,792.96704,773.22345
787.72894,794.17584,791.3553,778.0586
805.4579,804.65204,800.2198,776.04395
807.0696,808.2784,800.6227,778.46155
803.44324,802.23444,797.8022,780.87915
796.1905,790.9524,788.93774,776.8498
799.81683,792.5641,788.1319,781.685
811.9048,796.5934,795.38464,790.14655
818.7546,797.8022,798.60803,790.54944
819.5604,802.23444,795.38464,793.7729
814.3223,795.38464,791.75824,798.60803
809.89014,790.14655,794.57874,799.41394
807.0696,789.7436,790.14655,799.81683
804.2491,800.6227,791.75824,794.9817
791.75824,794.17584,790.9524,795.78754
796.99634,794.17584,785.7143,798.20514
812.71063,796.1905,780.07324,806.6667
822.381,802.23444,799.81683,815.12823
811.9048,796.1905,788.5348,799.81683
801.02563,797.8022,814.3223,802.6374
778.0586,788.5348,806.6667,792.5641
783.2967,786.9231,804.2491,792.5641
792.5641,788.5348,803.44324,796.99634
801.8315,796.1905,815.5311,804.65204
807.8755,801.4286,825.6044,807.8755
796.1905,792.5641,817.1429,794.9817
786.9231,782.8938,808.68134,781.685
792.96704,789.7436,808.2784,782.8938
802.23444,801.4286,812.3077,790.14655
802.23444,801.4286,812.71063,789.7436
796.1905,793.7729,805.05493,789.34064
791.75824,791.75824,801.8315,792.96704
792.5641,790.14655,803.0403,795.38464
801.4286,797.3993,808.2784,804.2491
810.293,807.8755,816.7399,803.44324
804.65204,798.60803,810.293,791.3553
795.78754,787.326,799.011,789.34064
803.0403,796.1905,802.23444,800.6227
813.5165,805.8608,811.9048,809.4872
793.7729,785.7143,793.7729,790.9524
800.6227,794.9817,800.6227,798.60803
786.9231,783.69965,791.3553,790.14655
792.96704,787.72894,797.8022,792.1612
803.44324,797.3993,804.2491,791.75824
801.8315,794.9817,803.44324,796.5934
795.78754,791.3553,796.99634,780.4762
789.34064,787.72894,791.75824,777.25275
791.75824,792.5641,788.5348,778.46155
800.6227,798.20514,792.1612,781.28204
813.1135,809.89014,806.26373,791.75824
814.3223,814.7253,808.2784,794.57874
802.6374,802.6374,798.20514,784.10254
801.8315,793.7729,793.7729,777.6557
807.8755,798.20514,801.02563,777.6557
814.7253,807.47253,807.47253,787.326
815.5311,808.68134,801.4286,791.75824
807.8755,799.81683,795.78754,788.1319
806.6667,794.57874,794.9817,793.36993
821.5751,807.0696,803.8461,808.68134
814.3223,797.8022,800.2198,803.0403
806.26373,788.1319,795.38464,796.1905
799.81683,784.10254,794.57874,796.5934
802.23444,798.60803,805.4579,809.89014
795.38464,788.5348,796.5934,801.8315
808.2784,804.2491,809.4872,807.0696
801.4286,800.6227,805.4579,799.81683
792.96704,795.38464,799.011,794.57874
814.7253,800.2198,799.011,803.44324
792.1612,798.60803,794.9817,789.34064
798.60803,799.011,803.44324,796.1905
805.05493,793.36993,810.293,801.8315
807.0696,783.69965,801.8315,803.8461
801.02563,792.1612,790.54944,793.36993
788.1319,807.47253,790.14655,775.64105
786.1172,808.2784,790.9524,772.4176
795.38464,810.293,795.78754,776.8498
795.78754,806.26373,792.5641,772.4176
793.36993,796.99634,780.07324,772.01465
796.99634,802.6374,779.2674,776.8498
803.8461,816.337,784.10254,777.6557
809.4872,823.1868,791.3553,780.07324
809.0842,819.15753,784.90845,783.69965
797.8022,802.6374,770.40295,776.4469
807.47253,803.8461,780.4762,791.75824
812.3077,805.8608,788.5348,792.96704
799.41394,798.60803,772.4176,780.4762
802.6374,796.5934,778.0586,781.685
792.5641,786.9231,770.0,775.2381
791.75824,786.9231,766.77655,773.22345
802.23444,793.7729,778.46155,778.86444
808.2784,805.05493,785.31134,782.8938
802.6374,807.0696,783.69965,784.10254
799.81683,799.81683,780.87915,785.7143
788.93774,789.34064,773.6264,782.0879
786.52014,793.36993,776.8498,776.04395
796.99634,803.8461,787.326,778.86444
798.60803,800.6227,785.31134,775.2381
790.54944,788.93774,776.8498,763.5531
791.75824,792.5641,778.86444,769.59705
794.57874,799.011,782.8938,771.2088
797.3993,804.65204,785.31134,766.77655
803.8461,802.23444,784.10254,766.3736
797.8022,792.96704,779.67035,763.1502
795.38464,794.9817,778.46155,768.3883
799.011,793.7729,782.49084,775.64105
804.2491,799.41394,788.1319,782.8938
808.2784,807.47253,794.9817,789.34064
802.6374,801.4286,793.36993,790.9524
796.5934,801.4286,793.7729,801.02563
794.57874,801.02563,793.7729,799.011
802.23444,803.44324,796.99634,792.96704
804.65204,805.4579,799.81683,793.36993
792.1612,794.9817,788.5348,784.10254
786.1172,788.93774,780.87915,777.25275
793.36993,791.3553,788.5348,784.5055
799.011,798.60803,797.8022,789.34064
800.2198,803.0403,800.6227,786.1172
790.9524,794.17584,793.7729,776.04395
786.1172,786.9231,788.5348,781.685
792.1612,792.1612,790.9524,796.99634
790.9524,796.1905,791.3553,792.5641
793.36993,799.81683,796.1905,793.7729
796.5934,797.8022,797.8022,797.3993
793.7729,795.78754,795.78754,792.96704
804.65204,804.65204,800.2198,791.3553
809.0842,815.12823,809.4872,792.1612
791.75824,793.36993,791.3553,786.9231
793.36993,804.2491,797.8022,778.86444
788.93774,791.75824,790.9524,777.6557
795.78754,792.96704,794.17584,782.8938
803.0403,800.2198,798.20514,784.90845
805.05493,803.44324,799.81683,786.1172
799.41394,798.20514,793.36993,785.31134
797.8022,795.38464,792.96704,791.75824
801.4286,798.60803,796.99634,798.60803
813.1135,805.05493,798.60803,809.0842
821.1722,812.71063,805.05493,812.71063
821.1722,812.71063,809.0842,809.89014
811.9048,794.9817,796.1905,804.65204
803.44324,788.5348,788.5348,796.1905
805.4579,794.17584,792.1612,796.5934
814.7253,801.4286,801.02563,798.20514
806.6667,801.4286,798.20514,789.7436
792.1612,788.1319,786.52014,782.8938
794.9817,794.17584,788.5348,790.54944
790.54944,788.93774,787.72894,782.49084
801.4286,799.41394,797.8022,792.1612
808.68134,804.65204,804.2491,791.75824
801.02563,794.57874,794.9817,786.52014
793.36993,788.93774,791.75824,786.1172
799.011,790.9524,797.3993,789.7436
804.65204,796.1905,803.8461,787.326
807.0696,801.02563,807.0696,786.9231
804.2491,796.5934,801.8315,784.5055
798.60803,792.1612,796.1905,782.49084
796.5934,793.36993,796.99634,782.49084
803.0403,798.60803,801.4286,782.8938
802.6374,802.6374,803.8461,786.52014
795.38464,800.2198,799.41394,784.10254
790.14655,789.34064,790.14655,782.0879
789.34064,787.72894,789.34064,792.96704
802.6374,802.23444,795.78754,801.8315
812.71063,807.0696,800.2198,800.2198
805.4579,796.99634,799.011,797.3993
794.17584,789.7436,792.1612,792.5641
794.57874,793.7729,796.5934,795.38464
802.23444,797.8022,800.2198,788.1319
799.41394,798.20514,798.20514,784.5055
799.011,796.5934,799.81683,795.38464
794.57874,797.8022,794.17584,785.31134
801.02563,803.8461,792.96704,789.7436
806.6667,805.05493,801.4286,793.36993
809.4872,805.05493,820.3663,796.99634
795.78754,799.81683,812.71063,780.4762
779.67035,799.41394,795.78754,765.56775
780.4762,797.8022,794.17584,769.59705
789.7436,801.4286,801.02563,769.59705
799.011,810.293,812.3077,771.6117
786.9231,803.44324,804.2491,761.53845
776.8498,799.41394,794.17584,761.13556
777.25275,800.6227,796.1905,767.1795
774.0293,802.23444,800.6227,765.56775
779.67035,809.0842,809.89014,770.40295
779.2674,806.6667,811.9048,767.5824
761.9414,791.3553,801.02563,752.27106
761.9414,789.7436,797.8022,764.7619
765.9707,797.8022,804.2491,767.5824
757.1062,786.52014,794.17584,750.2564
765.56775,804.65204,803.0403,757.1062
754.68866,800.2198,791.3553,755.4945
753.0769,794.9817,792.5641,756.30035
759.92676,795.78754,803.8461,753.0769
761.13556,800.6227,806.26373,756.7033
765.16486,800.2198,805.4579,752.674
761.53845,794.17584,807.0696,747.03296
751.8681,786.52014,802.23444,742.1978
756.30035,785.7143,797.8022,743.00366
772.4176,797.3993,803.44324,754.68866
780.07324,808.68134,803.8461,755.09155
774.0293,807.8755,794.57874,743.8095
769.19415,792.96704,785.7143,740.58606
774.83514,793.36993,788.5348,743.00366
787.72894,805.05493,805.05493,754.68866
790.14655,805.4579,809.89014,761.53845
785.31134,795.38464,796.5934,760.7326
787.326,802.6374,801.8315,781.685
796.99634,809.89014,809.0842,787.326
803.44324,810.293,815.12823,797.3993
784.10254,792.5641,795.38464,772.01465
807.0696,807.0696,813.1135,802.23444
805.4579,802.23444,805.8608,803.44324
805.05493,801.4286,804.2491,802.6374
809.89014,809.4872,809.0842,801.8315
817.1429,816.337,813.91943,804.65204
811.0989,805.4579,810.293,800.6227
802.23444,795.78754,806.6667,802.6374
803.44324,792.5641,803.44324,805.05493
805.05493,794.9817,799.81683,799.41394
817.9487,811.9048,809.0842,805.4579
821.978,815.12823,807.47253,806.6667
815.9341,800.2198,801.02563,801.4286
813.5165,792.96704,799.81683,802.6374
816.337,800.2198,799.011,808.2784
820.7692,808.2784,803.44324,803.0403
819.5604,807.47253,802.23444,794.9817
815.9341,805.4579,799.41394,796.1905
817.5458,802.6374,794.9817,799.011
822.381,801.02563,795.38464,803.8461
823.5897,803.8461,799.011,799.41394
819.15753,802.6374,796.5934,788.93774
806.26373,792.96704,784.90845,784.10254
803.44324,785.31134,777.25275,788.93774
815.9341,782.8938,783.69965,801.8315
827.619,795.38464,797.8022,813.91943
827.619,809.89014,803.8461,811.50183
809.89014,799.81683,791.75824,794.9817
801.8315,792.1612,788.1319,800.6227
814.7253,805.05493,801.4286,815.12823
822.7839,813.1135,814.3223,820.3663
824.7985,815.5311,820.3663,824.7985
818.3516,801.8315,810.293,820.3663
810.696,788.5348,797.3993,810.696
808.68134,797.3993,799.011,807.8755
812.3077,806.26373,807.8755,817.5458
820.7692,815.5311,816.337,825.2015
820.3663,814.3223,810.696,816.337
812.71063,802.6374,796.5934,804.2491
812.71063,803.0403,794.17584,805.4579
828.4249,813.1135,805.8608,814.7253
838.9011,817.5458,813.91943,811.50183
834.87177,817.5458,808.68134,806.6667
828.4249,807.0696,803.44324,813.5165
828.8278,817.1429,807.47253,817.5458
836.4835,819.5604,805.05493,812.3077
839.304,811.9048,798.20514,798.60803
826.4103,800.2198,787.72894,796.99634
823.9927,797.3993,790.9524,808.2784
826.0073,801.8315,797.8022,815.5311
827.619,812.3077,805.05493,825.6044
826.8132,808.68134,803.8461,823.9927
830.0366,807.8755,799.81683,809.4872
815.5311,793.36993,792.1612,814.3223
813.1135,799.81683,801.4286,820.7692
816.337,803.44324,806.6667,819.5604
820.3663,803.8461,803.0403,815.5311
808.68134,794.57874,794.57874,805.05493
801.8315,794.9817,793.7729,796.5934
806.26373,802.6374,795.78754,792.96704
812.71063,804.65204,797.3993,795.38464
810.293,803.44324,796.5934,790.14655
795.38464,792.5641,788.1319,774.43225
783.69965,781.28204,778.0586,769.59705
813.1135,794.17584,794.17584,820.3663
787.326,790.9524,783.2967,780.87915
804.2491,804.2491,794.17584,788.1319
807.47253,800.2198,800.6227,788.1319
799.41394,790.54944,795.38464,785.31134
801.4286,789.34064,790.14655,783.2967
812.71063,801.4286,798.60803,794.17584
815.5311,807.8755,803.8461,800.2198
809.4872,805.8608,802.6374,794.17584
805.05493,799.81683,801.02563,795.38464
801.02563,784.90845,789.7436,790.9524
801.4286,785.31134,786.1172,784.5055
812.3077,799.41394,797.8022,788.93774
820.7692,807.47253,803.0403,801.8315
811.50183,803.8461,798.20514,800.2198
802.6374,796.5934,792.96704,792.96704
801.4286,797.3993,787.72894,795.38464
803.44324,796.5934,791.3553,796.1905
808.2784,800.6227,798.20514,791.3553
809.4872,803.0403,798.20514,788.5348
800.2198,797.3993,795.78754,788.1319
803.44324,796.5934,797.3993,796.1905
809.89014,803.44324,800.2198,794.9817
814.7253,814.7253,808.2784,797.8022
815.5311,807.8755,803.8461,804.2491
809.0842,794.57874,794.9817,798.20514
806.26373,792.5641,795.78754,796.1905
811.9048,798.60803,802.6374,801.02563
821.1722,807.47253,815.5311,803.44324
816.337,805.8608,816.7399,801.02563
809.0842,795.78754,811.0989,801.4286
808.68134,794.17584,807.0696,809.89014
810.696,800.6227,807.8755,809.89014
816.7399,805.4579,810.293,811.9048
819.5604,809.4872,811.50183,813.5165
811.0989,807.47253,805.05493,804.65204
804.65204,798.20514,806.26373,812.71063
804.65204,793.7729,805.4579,813.5165
810.293,801.4286,803.8461,805.8608
815.9341,803.8461,808.68134,811.50183
807.0696,798.60803,801.8315,807.0696
799.81683,795.38464,797.3993,796.1905
798.20514,795.38464,801.02563,795.78754
801.4286,798.60803,801.4286,795.78754
803.8461,803.0403,801.8315,798.60803
798.20514,800.2198,794.57874,788.1319
786.52014,796.99634,789.7436,782.49084
794.57874,807.47253,797.3993,794.17584
808.2784,811.50183,801.8315,794.57874
810.696,813.5165,808.68134,794.57874
802.6374,810.293,805.8608,795.38464
793.36993,799.81683,795.78754,793.7729
798.60803,798.60803,797.3993,793.7729
803.0403,805.8608,803.44324,798.60803
806.26373,813.1135,810.293,807.8755
793.36993,792.1612,792.96704,795.38464
797.3993,801.02563,797.8022,801.02563
804.2491,806.6667,805.8608,803.0403
813.5165,805.8608,809.89014,803.44324
805.8608,803.0403,800.2198,797.8022
801.8315,801.8315,804.65204,801.4286
805.05493,800.6227,797.3993,804.2491
811.0989,801.02563,801.4286,813.5165
811.9048,803.0403,800.6227,810.293
809.89014,804.2491,803.0403,800.6227
801.02563,798.20514,799.011,794.17584
807.8755,797.8022,799.81683,801.4286
812.3077,799.011,802.6374,803.0403
807.0696,798.20514,800.2198,801.02563
811.50183,809.0842,804.2491,801.4286
810.696,804.2491,801.4286,795.38464
801.4286,794.57874,794.57874,790.14655
797.8022,795.38464,794.9817,788.1319
801.8315,800.6227,794.9817,783.69965
807.47253,806.6667,802.6374,787.326
806.6667,804.2491,803.44324,790.14655
796.99634,797.3993,796.5934,789.34064
789.7436,797.3993,795.38464,790.54944
795.78754,803.8461,801.8315,790.54944
799.41394,807.8755,809.4872,794.57874
803.8461,808.68134,810.293,799.011
797.3993,796.99634,798.20514,784.90845
788.5348,789.7436,790.14655,787.72894
791.3553,790.14655,794.17584,796.1905
794.17584,796.1905,796.99634,790.54944
799.81683,801.8315,797.3993,788.93774
794.17584,795.78754,788.1319,786.1172
802.6374,799.011,794.9817,796.5934
809.89014,805.8608,805.4579,801.02563
814.7253,810.696,806.26373,795.78754
806.6667,799.81683,797.8022,791.3553
793.36993,789.7436,791.75824,788.1319
795.78754,792.1612,789.34064,791.75824
796.99634,795.78754,790.14655,785.7143
813.91943,802.23444,791.3553,799.011
820.3663,805.05493,794.57874,804.65204
803.0403,795.78754,799.41394,790.9524
789.34064,786.52014,799.011,776.4469
793.36993,790.14655,794.17584,782.0879
806.26373,791.3553,798.60803,786.1172
801.4286,791.75824,800.2198,783.2967
799.81683,790.14655,794.57874,786.9231
784.90845,788.1319,796.1905,780.07324
794.9817,787.72894,787.72894,788.93774
798.60803,788.1319,790.14655,789.34064
817.9487,801.8315,804.65204,806.6667
803.44324,799.41394,796.5934,797.8022
796.1905,785.7143,784.90845,788.5348
802.23444,787.72894,792.96704,797.3993
795.78754,794.57874,798.60803,801.02563
809.89014,800.2198,806.26373,808.2784
803.0403,793.36993,799.41394,800.6227
797.8022,788.1319,792.5641,803.44324
803.8461,789.34064,796.5934,811.0989
817.9487,803.8461,805.8608,816.7399
820.7692,807.0696,806.26373,813.91943
811.50183,794.9817,794.57874,809.89014
808.2784,788.1319,790.9524,811.0989
805.8608,802.23444,803.44324,809.4872
809.4872,795.78754,797.8022,810.293
815.5311,806.6667,806.6667,814.3223
812.3077,804.2491,802.6374,805.4579
805.4579,795.38464,794.9817,797.8022
803.0403,792.96704,792.1612,801.02563
800.2198,795.38464,791.75824,797.3993
809.89014,803.44324,802.6374,799.011
810.696,805.4579,806.6667,803.44324
799.41394,796.99634,794.9817,791.3553
795.38464,788.93774,790.14655,783.2967
797.8022,790.14655,791.75824,790.14655
811.50183,805.8608,799.81683,801.02563
811.9048,810.293,801.4286,793.36993
801.4286,800.6227,794.9817,789.7436
801.4286,795.38464,792.96704,796.5934
807.47253,800.2198,799.011,799.81683
817.9487,805.4579,807.0696,803.44324
816.337,807.47253,808.2784,807.0696
809.89014,797.3993,803.44324,812.71063
813.91943,791.75824,802.23444,812.71063
816.7399,794.57874,802.6374,811.0989
820.7692,796.1905,803.44324,813.5165
828.022,803.8461,810.696,813.5165
823.9927,806.6667,808.68134,812.3077
816.337,802.23444,804.2491,816.337
819.15753,801.02563,803.44324,816.7399
817.9487,799.011,801.02563,811.9048
820.7692,799.81683,803.0403,807.0696
818.7546,802.23444,803.44324,805.4579
807.47253,796.99634,801.02563,802.23444
806.6667,792.5641,797.8022,803.44324
809.89014,796.99634,798.20514,806.26373
803.8461,805.8608,801.4286,797.3993
807.0696,804.65204,804.2491,799.011
808.68134,795.78754,801.8315,802.23444
808.2784,801.02563,800.6227,798.20514
811.50183,803.44324,802.23444,795.38464
807.8755,803.8461,805.4579,790.9524
810.293,806.6667,807.0696,792.96704
804.2491,797.3993,800.6227,784.90845
794.17584,791.3553,793.36993,777.25275
796.1905,793.36993,794.17584,788.1319
805.05493,801.8315,804.2491,796.5934
807.0696,803.0403,808.68134,795.78754
802.6374,796.1905,807.0696,805.05493
811.0989,801.8315,810.696,810.293
822.7839,811.0989,818.7546,816.7399
801.4286,797.8022,805.4579,794.57874
824.3956,809.4872,815.9341,817.1429
819.15753,800.2198,803.44324,810.293
813.91943,798.60803,805.4579,818.7546
804.2491,796.99634,802.6374,809.0842
809.0842,797.8022,799.011,801.02563
814.3223,802.6374,804.2491,807.8755
801.02563,786.9231,793.36993,796.1905
796.99634,784.10254,788.93774,788.1319
799.81683,790.9524,794.17584,788.93774
807.8755,796.5934,799.41394,803.0403
808.2784,799.81683,803.0403,794.9817
806.26373,793.36993,796.5934,784.5055
801.02563,787.72894,792.96704,777.25275
800.6227,791.3553,796.5934,779.2674
804.2491,792.5641,799.41394,776.04395
807.47253,797.3993,801.4286,775.64105
804.2491,800.6227,797.3993,774.83514
792.96704,792.1612,792.1612,770.0
794.9817,788.5348,792.96704,775.2381
801.4286,792.96704,795.78754,781.685
809.89014,803.44324,807.8755,790.9524
819.5604,809.89014,812.3077,800.2198
813.5165,801.8315,806.6667,801.4286
812.3077,798.20514,807.47253,806.6667
820.7692,807.8755,813.5165,814.7253
823.9927,812.3077,817.5458,822.381
822.7839,807.47253,815.12823,829.6337
809.4872,799.011,809.89014,820.7692
804.2491,796.5934,809.89014,813.1135
809.0842,801.02563,813.5165,813.91943
806.26373,803.44324,811.9048,810.696
798.60803,810.293,804.65204,805.8608
796.99634,802.23444,798.60803,802.6374
805.05493,794.9817,796.99634,796.99634
806.6667,800.2198,803.0403,798.60803
807.47253,802.6374,809.4872,799.81683
804.2491,799.81683,802.6374,790.14655
811.9048,805.8608,810.696,794.9817
797.8022,800.2198,801.02563,784.10254
800.2198,800.2198,797.3993,776.04395
798.20514,802.23444,796.1905,774.83514
794.9817,795.38464,799.41394,787.72894
792.96704,799.41394,795.78754,776.8498
788.5348,789.34064,792.5641,773.22345
789.7436,782.8938,789.34064,774.43225
800.2198,792.96704,796.5934,781.28204
805.8608,801.8315,799.41394,780.4762
804.2491,801.8315,793.7729,780.87915
806.26373,798.60803,793.36993,785.31134
809.0842,796.5934,795.38464,790.14655
821.1722,807.8755,802.23444,803.0403
827.619,811.50183,809.0842,809.0842
813.5165,796.5934,794.9817,796.5934
819.9634,798.20514,794.57874,803.0403
816.7399,800.2198,803.44324,799.41394
821.978,806.26373,803.8461,807.8755
825.6044,815.5311,813.91943,811.0989
821.978,800.6227,810.696,808.68134
813.91943,786.9231,799.81683,808.2784
815.9341,800.2198,795.78754,806.26373
810.696,809.0842,796.5934,796.1905
806.6667,804.2491,795.38464,790.14655
812.3077,804.65204,794.9817,799.41394
801.8315,799.81683,790.54944,794.57874
791.3553,797.8022,787.72894,779.2674
791.3553,802.6374,790.14655,778.46155
797.8022,811.9048,794.17584,779.2674
793.7729,811.50183,790.9524,768.7912
791.3553,805.4579,789.7436,776.04395
796.5934,801.4286,796.99634,786.1172
803.0403,803.0403,800.2198,786.1172
814.7253,813.5165,802.23444,794.57874
815.5311,815.5311,800.6227,790.9524
807.0696,805.8608,794.57874,793.36993
803.44324,800.2198,790.9524,797.3993
802.6374,803.0403,792.96704,796.99634
813.91943,812.3077,799.011,807.47253
820.7692,813.91943,801.8315,809.89014
807.0696,797.8022,794.9817,801.4286
799.81683,790.54944,788.5348,797.8022
801.4286,789.7436,788.5348,800.6227
798.20514,785.7143,792.5641,798.60803
798.20514,790.14655,790.54944,792.5641
792.1612,788.5348,784.90845,792.96704
788.1319,788.5348,787.72894,798.60803
797.8022,796.1905,792.5641,799.81683
806.6667,804.65204,797.3993,801.02563
795.78754,803.0403,794.57874,792.1612
792.5641,790.9524,784.10254,786.52014
801.02563,793.36993,791.75824,784.90845
801.8315,802.6374,800.2198,788.1319
807.47253,811.9048,803.0403,799.011
801.4286,807.47253,801.8315,786.1172
794.57874,799.41394,796.5934,781.28204
787.326,793.36993,791.75824,775.64105
784.5055,792.1612,790.54944,770.80585
790.14655,794.9817,791.3553,773.22345
799.81683,801.02563,798.20514,780.87915
798.60803,795.38464,796.5934,781.685
794.17584,783.2967,787.72894,778.86444
794.57874,783.2967,784.90845,787.72894
803.8461,796.5934,787.326,795.38464
813.1135,801.02563,792.1612,799.41394
806.6667,794.17584,789.34064,796.99634
804.2491,792.5641,789.34064,798.20514
806.6667,798.20514,794.9817,806.26373
813.91943,806.6667,805.4579,811.9048
826.0073,811.0989,812.71063,818.3516
819.5604,804.65204,806.6667,813.91943
805.4579,792.96704,792.5641,803.0403
803.0403,793.36993,793.7729,806.26373
810.696,798.20514,799.81683,807.8755
805.4579,791.3553,791.3553,807.8755
812.3077,799.41394,800.2198,805.8608
788.93774,791.3553,786.9231,784.10254
789.7436,787.326,790.14655,785.31134
798.20514,788.5348,796.1905,791.75824
800.2198,794.9817,797.3993,791.3553
799.011,796.99634,796.99634,787.326
784.5055,788.93774,789.7436,775.2381
773.22345,781.28204,780.4762,771.2088
772.4176,781.28204,781.685,767.98535
782.8938,790.54944,788.93774,772.01465
779.67035,793.7729,790.14655,768.7912
776.4469,783.69965,782.8938,765.56775
782.8938,782.49084,781.685,774.0293
782.0879,787.72894,784.90845,781.28204
787.326,793.7729,792.5641,782.8938
797.8022,796.5934,796.99634,785.31134
800.6227,791.3553,792.96704,790.14655
796.5934,786.1172,787.72894,793.36993
791.75824,786.1172,786.52014,791.75824
800.2198,795.78754,791.3553,799.41394
816.7399,802.23444,798.60803,805.4579
813.1135,792.1612,796.1905,803.0403
808.68134,785.7143,790.9524,806.26373
811.50183,791.75824,794.57874,812.3077
815.9341,797.3993,803.44324,814.7253
817.9487,800.6227,805.8608,816.337
809.4872,798.20514,797.8022,806.6667
801.02563,791.75824,791.3553,798.20514
807.47253,795.38464,784.10254,801.4286
824.3956,801.4286,784.10254,808.2784
814.7253,796.99634,802.6374,803.44324
786.52014,794.57874,807.8755,781.685
774.0293,789.34064,796.99634,769.19415
783.69965,785.31134,798.60803,779.2674
812.3077,801.4286,815.5311,811.0989
803.8461,794.9817,806.6667,798.60803
805.05493,796.5934,813.91943,804.65204
796.5934,790.54944,807.47253,797.3993
793.36993,791.3553,807.8755,791.3553
796.5934,792.96704,811.50183,796.99634
800.2198,796.5934,809.4872,800.2198
805.4579,796.5934,816.337,807.47253
790.9524,794.17584,800.6227,793.7729
800.6227,791.75824,800.2198,799.81683
807.47253,790.54944,801.02563,799.011
815.12823,795.78754,801.8315,801.02563
822.381,802.23444,804.65204,812.71063
818.3516,799.41394,803.8461,809.89014
810.293,792.96704,797.3993,807.0696
810.293,792.1612,797.8022,807.47253
817.9487,803.44324,807.0696,809.89014
818.7546,806.6667,807.0696,808.2784
801.4286,791.75824,796.1905,799.41394
796.5934,803.0403,807.47253,792.96704
803.44324,803.8461,807.8755,798.20514
796.1905,795.38464,799.81683,795.78754
809.89014,804.2491,811.50183,801.4286
802.6374,799.81683,807.0696,794.9817
801.8315,800.2198,802.23444,796.1905
808.2784,803.8461,808.68134,804.2491
817.1429,809.0842,811.0989,805.4579
826.8132,816.337,810.293,806.26373
819.15753,813.5165,809.89014,808.2784
807.47253,805.4579,805.4579,801.02563
812.3077,807.8755,805.4579,801.4286
819.5604,815.12823,809.0842,808.2784
822.381,811.0989,804.65204,808.68134
815.5311,802.23444,797.8022,809.89014
806.26373,794.9817,793.7729,806.6667
807.0696,796.5934,794.9817,809.0842
811.0989,801.4286,805.05493,814.3223
815.12823,806.26373,808.2784,809.4872
815.9341,809.4872,801.02563,811.0989
809.89014,802.23444,798.60803,811.0989
805.8608,799.011,799.81683,809.89014
810.293,806.26373,805.8608,811.9048
813.5165,814.7253,815.5311,814.3223
813.5165,814.7253,811.9048,809.89014
803.0403,802.6374,803.0403,802.6374
793.36993,796.99634,795.78754,799.011
803.8461,799.41394,798.60803,801.02563
813.5165,808.2784,810.696,809.4872
799.011,801.02563,801.02563,789.34064
791.75824,797.3993,799.011,788.93774
794.57874,802.6374,806.6667,792.1612
802.23444,808.2784,812.71063,792.5641
808.68134,811.9048,811.50183,801.4286
804.65204,811.50183,813.91943,790.9524
797.3993,803.0403,806.6667,787.326
790.54944,794.9817,797.3993,782.49084
795.38464,796.99634,801.8315,788.1319
811.0989,806.26373,810.696,800.6227
813.91943,811.50183,815.5311,808.68134
801.02563,798.20514,803.0403,797.8022
803.8461,794.9817,795.38464,801.4286
813.91943,800.2198,801.8315,809.89014
815.5311,805.8608,801.02563,805.8608
807.8755,800.2198,791.75824,798.60803
802.23444,792.96704,793.36993,798.20514
799.81683,791.75824,794.17584,792.1612
801.4286,795.38464,796.99634,799.81683
807.8755,803.8461,795.78754,803.8461
808.68134,805.4579,794.57874,797.8022
809.4872,797.8022,794.9817,798.20514
816.7399,798.60803,798.20514,809.0842
819.5604,803.8461,802.23444,809.4872
816.337,809.89014,805.8608,807.47253
809.0842,802.6374,800.6227,802.23444
814.7253,810.696,808.2784,803.0403
801.02563,796.5934,791.75824,801.02563
796.1905,796.5934,793.7729,784.90845
797.8022,803.0403,796.99634,786.52014
794.57874,794.9817,793.36993,787.72894
794.17584,804.65204,796.5934,779.2674
790.54944,789.34064,785.31134,767.98535
789.34064,784.5055,783.2967,769.19415
801.4286,790.9524,792.5641,780.4762
812.71063,797.8022,799.41394,790.9524
810.696,803.0403,801.4286,796.5934
806.26373,796.1905,795.38464,797.8022
813.1135,799.41394,795.78754,805.4579
820.7692,806.6667,805.05493,818.7546
819.5604,809.89014,806.26373,813.1135
811.9048,807.0696,802.6374,803.44324
806.6667,801.02563,797.8022,799.81683
799.011,799.011,791.75824,798.20514
794.17584,800.6227,790.9524,797.3993
803.8461,807.47253,800.2198,802.23444
811.50183,809.4872,801.8315,807.47253
808.2784,805.8608,797.8022,811.9048
807.0696,801.4286,801.4286,810.696
812.3077,807.8755,807.47253,810.696
816.337,814.7253,812.71063,812.71063
814.3223,815.5311,815.5311,805.4579
805.05493,809.4872,810.293,793.7729
797.8022,802.6374,804.65204,790.9524
794.57874,799.011,804.2491,786.9231
806.6667,803.0403,805.4579,789.7436
814.3223,807.0696,805.8608,797.8022
807.0696,805.4579,805.4579,798.60803
805.4579,803.8461,801.8315,795.78754
807.47253,803.8461,794.9817,792.96704
813.91943,810.293,800.2198,799.011
822.381,817.9487,806.6667,805.05493
824.3956,811.9048,801.8315,802.23444
817.5458,802.23444,798.20514,801.02563
815.12823,805.8608,802.23444,808.2784
834.4689,817.5458,811.50183,821.5751
843.3333,821.978,815.9341,826.4103
832.0513,817.1429,813.1135,827.2161
830.4396,811.9048,810.696,829.6337
832.8571,811.9048,815.12823,827.2161
831.2454,814.3223,814.3223,820.7692
826.4103,815.5311,812.71063,812.3077
815.12823,807.8755,808.68134,808.2784
803.44324,797.8022,796.99634,803.8461
800.6227,799.81683,798.20514,803.0403
805.8608,806.26373,807.0696,807.47253
813.1135,816.337,814.3223,813.1135
808.2784,815.12823,808.2784,804.65204
793.36993,799.81683,791.3553,790.54944
793.36993,799.81683,794.9817,800.6227
803.0403,805.05493,803.0403,808.68134
812.3077,808.2784,807.0696,803.8461
811.0989,807.8755,808.2784,801.4286
799.81683,802.23444,803.8461,794.57874
792.96704,799.81683,801.4286,792.1612
790.9524,799.81683,796.1905,785.31134
802.23444,805.05493,803.8461,788.1319
808.68134,806.26373,806.26373,790.9524
791.75824,792.96704,788.93774,780.07324
784.5055,783.69965,784.10254,782.8938
791.3553,785.31134,789.34064,794.17584
797.8022,795.78754,795.78754,803.8461
798.20514,800.2198,794.57874,801.4286
789.7436,787.72894,788.5348,789.7436
790.9524,780.87915,791.3553,794.17584
802.23444,779.67035,794.57874,814.3223
811.9048,789.7436,797.3993,823.5897
805.05493,806.26373,795.78754,802.6374
785.7143,800.6227,785.7143,776.04395
782.8938,793.7729,782.8938,780.4762
789.7436,789.7436,782.8938,789.7436
793.36993,792.5641,782.0879,789.7436
798.60803,801.8315,788.1319,788.93774
794.17584,798.60803,784.5055,787.326
785.7143,788.5348,772.8205,784.10254
789.7436,786.52014,772.8205,784.5055
796.5934,793.7729,781.28204,789.7436
800.2198,802.23444,788.93774,787.326
788.1319,798.60803,783.69965,772.01465
780.87915,790.9524,778.0586,772.01465
785.7143,792.96704,781.685,776.8498
789.7436,797.8022,784.5055,779.2674
803.44324,804.65204,789.7436,787.72894
797.8022,799.011,787.72894,783.2967
785.31134,793.36993,785.31134,780.87915
788.5348,792.1612,784.90845,782.0879
793.36993,798.20514,788.93774,788.1319
803.44324,810.293,797.3993,797.8022
800.6227,804.2491,795.38464,792.96704
782.8938,787.326,781.685,782.0879
783.2967,786.9231,786.52014,788.1319
774.0293,778.46155,776.4469,778.46155
791.3553,795.38464,795.38464,796.1905
788.1319,787.72894,792.5641,792.5641
780.07324,788.1319,788.1319,788.93774
784.90845,795.78754,788.1319,785.7143
791.3553,803.44324,793.36993,788.5348
784.10254,799.41394,796.5934,786.1172
773.6264,788.1319,791.75824,775.2381
781.28204,784.5055,787.72894,787.72894
769.59705,778.46155,785.31134,776.8498
771.6117,779.67035,788.1319,782.0879
783.69965,800.2198,794.9817,775.2381
772.4176,784.90845,790.14655,774.43225
768.7912,780.4762,785.7143,778.86444
778.86444,790.14655,785.31134,778.0586
795.78754,799.41394,796.1905,782.8938
803.44324,804.65204,801.02563,791.3553
790.54944,795.78754,790.54944,785.7143
772.4176,780.87915,780.87915,770.40295
783.2967,783.69965,788.5348,774.0293
782.49084,795.38464,797.8022,782.8938
803.0403,800.2198,805.8608,792.5641
801.8315,804.65204,805.8608,791.75824
785.31134,790.14655,796.99634,778.0586
788.5348,796.5934,796.5934,784.90845
788.93774,792.96704,796.5934,774.83514
788.93774,803.0403,794.9817,776.4469
792.5641,809.4872,796.5934,775.64105
789.34064,803.8461,790.14655,774.43225
783.2967,792.1612,786.1172,772.01465
780.4762,789.34064,788.1319,777.25275
781.28204,795.78754,792.96704,784.90845
781.685,803.44324,795.78754,777.6557
772.01465,795.78754,790.14655,770.40295
762.74725,780.87915,785.7143,772.4176
771.6117,794.17584,789.7436,770.40295
781.28204,799.81683,792.96704,773.6264
776.04395,801.4286,792.1612,769.59705
763.95605,790.9524,787.326,757.9121
771.6117,790.9524,792.5641,766.3736
776.8498,794.17584,797.3993,778.0586
785.31134,800.2198,799.41394,778.0586
783.2967,802.23444,795.38464,772.4176
771.2088,790.54944,788.1319,765.9707
766.3736,786.9231,787.72894,770.40295
777.6557,790.14655,792.5641,766.3736
784.10254,796.1905,795.78754,775.64105
788.93774,796.1905,798.60803,784.10254
789.34064,797.3993,799.81683,785.7143
779.2674,790.14655,790.9524,782.49084
775.64105,789.7436,786.52014,780.87915
780.07324,795.78754,790.54944,780.07324
783.2967,796.99634,792.96704,781.28204
786.9231,796.99634,792.96704,787.326
774.83514,789.7436,788.1319,774.83514
762.74725,783.69965,783.2967,760.32965
763.95605,783.2967,783.2967,757.9121
775.2381,796.5934,790.14655,762.74725
782.8938,804.2491,797.8022,770.0
770.0,792.1612,794.57874,763.1502
762.3443,785.7143,788.1319,755.09155
759.12085,788.93774,789.34064,755.09155
763.1502,798.20514,797.8022,761.13556
776.8498,805.8608,806.6667,768.7912
773.22345,798.20514,803.0403,760.7326
767.98535,790.9524,800.6227,765.56775
769.59705,794.17584,801.4286,770.0
772.4176,802.23444,798.60803,759.5238
775.64105,809.4872,801.8315,760.32965
773.6264,801.02563,801.8315,761.9414
767.1795,794.57874,796.1905,762.74725
770.0,797.8022,799.011,770.0
777.25275,801.8315,803.0403,767.1795
780.07324,801.4286,800.6227,766.3736
779.2674,801.4286,795.38464,768.7912
778.0586,796.99634,793.7729,771.2088
775.64105,790.14655,793.36993,774.0293
782.0879,800.6227,798.60803,776.04395
799.41394,811.9048,805.8608,785.31134
803.0403,808.2784,804.65204,788.1319
779.67035,787.72894,790.14655,778.0586
768.7912,780.87915,784.90845,774.0293
777.25275,788.5348,792.1612,779.67035
789.7436,795.78754,798.60803,790.9524
792.5641,794.57874,798.20514,788.93774
782.8938,783.2967,786.52014,784.10254
784.10254,791.3553,794.57874,784.5055
784.90845,784.90845,788.1319,781.28204
788.5348,781.28204,776.8498,780.4762
789.7436,787.326,790.14655,785.31134
786.52014,788.1319,776.04395,777.25275
793.7729,794.17584,789.34064,782.8938
796.5934,796.99634,794.17584,784.10254
790.14655,791.75824,786.52014,774.83514
787.326,787.326,784.10254,776.4469
792.96704,787.326,786.52014,786.52014
804.65204,796.1905,801.4286,797.8022
808.2784,804.65204,808.68134,802.6374
799.41394,795.38464,798.60803,795.38464
798.20514,789.34064,795.38464,796.5934
801.02563,790.54944,795.38464,799.41394
808.2784,801.4286,803.44324,807.47253
818.3516,811.0989,811.50183,811.50183
811.0989,803.8461,802.23444,811.9048
791.3553,789.7436,795.38464,809.89014
788.1319,785.7143,798.20514,807.47253
800.2198,794.9817,801.4286,807.47253
799.011,794.57874,800.6227,798.60803
809.89014,805.05493,809.89014,809.89014
786.1172,782.0879,785.31134,786.52014
785.31134,783.69965,789.7436,788.5348
794.9817,796.99634,803.44324,787.72894
784.5055,792.5641,795.38464,773.6264
790.9524,790.14655,803.0403,794.17584
776.04395,785.31134,784.90845,766.77655
772.4176,783.2967,780.07324,767.98535
785.31134,796.5934,803.8461,782.8938
774.43225,785.7143,789.34064,782.0879
791.75824,802.23444,807.0696,782.49084
786.9231,794.17584,801.8315,786.9231
778.46155,786.1172,797.3993,785.31134
782.0879,794.57874,797.8022,783.2967
790.14655,802.23444,808.2784,788.5348
785.31134,794.57874,809.0842,791.75824
778.86444,782.8938,798.20514,786.9231
782.49084,774.43225,794.57874,790.14655
790.9524,776.8498,796.1905,801.02563
803.0403,793.7729,807.47253,811.0989
806.6667,796.5934,809.89014,809.89014
796.5934,790.9524,798.60803,800.2198
796.1905,792.1612,795.38464,799.41394
796.5934,792.96704,798.60803,801.02563
792.1612,795.38464,807.0696,799.011
788.93774,804.65204,811.9048,792.1612
784.90845,800.2198,800.6227,782.49084
778.0586,783.69965,791.3553,778.86444
782.0879,783.69965,796.99634,784.5055
793.7729,796.5934,810.293,788.93774
800.2198,802.23444,813.1135,786.1172
794.17584,794.57874,799.011,780.07324
790.9524,791.75824,792.5641,774.83514
794.9817,798.60803,801.8315,781.28204
797.8022,803.8461,809.4872,785.7143
786.9231,794.57874,796.1905,779.2674
795.78754,799.81683,796.1905,785.7143
801.8315,808.2784,809.89014,794.17584
805.05493,814.3223,823.9927,799.011
807.0696,811.50183,815.5311,792.5641
802.6374,805.4579,807.0696,786.52014
803.0403,806.6667,803.0403,790.9524
811.9048,813.1135,813.91943,804.65204
832.0513,829.6337,834.0659,820.3663
792.1612,797.8022,806.26373,774.0293
785.31134,792.1612,798.60803,770.80585
830.84247,827.619,827.619,815.12823
817.5458,817.5458,816.7399,810.696
827.619,823.5897,813.91943,821.1722
831.6484,826.0073,821.1722,826.0073
817.1429,822.381,822.7839,803.44324
808.2784,813.5165,819.15753,803.8461
807.47253,807.8755,815.12823,809.89014
819.9634,812.71063,813.91943,816.7399
826.4103,815.9341,813.91943,811.0989
821.978,815.9341,814.7253,805.8608
798.20514,803.8461,809.4872,796.5934
818.7546,820.7692,824.7985,812.71063
792.96704,802.6374,806.6667,794.9817
805.05493,811.0989,815.5311,796.99634
809.0842,815.12823,814.7253,798.20514
804.65204,804.65204,804.2491,795.38464
792.5641,791.75824,796.99634,786.52014
789.34064,793.7729,800.2198,790.54944
803.44324,809.0842,810.696,802.6374
796.1905,798.20514,807.0696,790.54944
798.20514,801.4286,807.47253,786.52014
795.78754,796.99634,805.05493,788.5348
792.1612,794.17584,805.4579,794.9817
787.326,792.96704,802.6374,790.54944
790.9524,795.78754,806.6667,784.90845
802.6374,808.68134,818.3516,800.6227
798.20514,803.8461,812.71063,802.23444
792.5641,793.7729,803.0403,799.41394
803.0403,796.99634,803.44324,808.68134
813.5165,806.6667,810.696,809.89014
798.60803,793.36993,804.2491,795.38464
800.2198,785.31134,800.6227,800.2198
803.8461,788.1319,802.6374,804.65204
805.4579,790.9524,803.44324,801.4286
806.26373,796.5934,811.0989,808.68134
809.0842,808.2784,814.3223,805.05493
804.2491,799.81683,813.91943,810.696
796.99634,794.17584,808.68134,800.6227
804.2491,797.8022,810.696,808.2784
815.5311,801.8315,810.293,815.12823
815.12823,803.8461,811.9048,808.68134
805.05493,802.23444,812.3077,803.44324
796.1905,790.14655,802.6374,796.99634
797.8022,785.7143,797.8022,794.57874
809.0842,794.57874,807.0696,802.23444
812.3077,799.41394,814.3223,798.60803
810.696,799.011,815.9341,790.14655
799.41394,792.1612,800.2198,789.34064
798.60803,791.3553,795.78754,799.81683
817.9487,798.20514,810.696,805.05493
813.91943,792.96704,807.0696,801.4286
816.337,797.8022,809.89014,808.68134
808.68134,785.7143,800.2198,805.05493
805.4579,788.1319,799.011,805.8608
804.65204,788.93774,797.3993,806.6667
804.2491,792.1612,801.4286,807.0696
792.96704,787.72894,802.6374,798.60803
802.23444,796.5934,810.293,800.2198
792.1612,778.46155,792.96704,803.44324
792.5641,778.86444,794.57874,798.60803
796.1905,793.36993,801.02563,799.011
805.4579,793.7729,809.0842,809.0842
798.60803,783.69965,805.4579,811.50183
795.78754,785.31134,804.65204,809.89014
793.36993,791.3553,807.8755,811.0989
796.5934,794.57874,818.3516,808.68134
782.8938,783.2967,809.4872,797.3993
769.19415,773.6264,797.3993,786.52014
786.52014,778.46155,796.99634,790.9524
805.05493,785.7143,802.23444,801.02563
807.8755,792.96704,807.8755,803.44324
807.0696,803.0403,809.0842,806.26373
799.011,784.10254,798.60803,797.8022
799.011,775.64105,795.38464,799.81683
808.2784,781.685,805.8608,811.9048
813.91943,795.78754,816.7399,819.15753
815.12823,796.99634,815.9341,818.7546
807.47253,783.69965,808.2784,811.9048
805.05493,777.25275,802.6374,811.50183
802.6374,775.64105,796.5934,809.4872
801.02563,784.90845,799.41394,808.2784
806.26373,788.5348,809.4872,808.68134
804.2491,778.0586,807.8755,804.2491
806.6667,777.25275,803.0403,817.1429
805.4579,778.86444,805.05493,818.3516
806.6667,792.96704,817.9487,812.71063
808.2784,788.5348,815.9341,820.7692
805.8608,774.43225,805.05493,817.9487
793.36993,769.19415,801.4286,808.68134
787.72894,773.6264,804.65204,803.44324
805.4579,784.90845,809.89014,809.0842
790.9524,776.4469,814.3223,803.0403
790.54944,775.64105,811.50183,799.81683
781.685,766.3736,801.4286,787.326
772.8205,767.1795,799.41394,784.10254
779.2674,773.6264,801.4286,792.96704
789.7436,774.83514,815.9341,794.9817
783.69965,771.2088,810.696,790.54944
792.96704,779.67035,819.9634,806.26373
811.50183,792.5641,835.6777,827.619
825.6044,801.8315,845.7509,844.1392
792.1612,775.64105,813.5165,799.011
814.7253,793.36993,835.2747,826.0073
809.4872,783.69965,829.6337,827.619
818.7546,786.9231,831.2454,835.6777
828.4249,800.6227,841.31866,841.31866
825.6044,803.44324,844.1392,838.49817
826.8132,803.44324,844.1392,831.6484
823.5897,797.8022,833.2601,833.663
821.5751,791.3553,828.8278,837.6923
822.7839,792.5641,830.84247,844.5421
827.2161,796.5934,832.4542,833.663
828.4249,800.2198,837.6923,834.0659
813.91943,794.9817,829.6337,820.3663
806.6667,781.685,817.5458,816.7399
811.50183,780.07324,814.7253,828.4249
816.337,790.9524,824.3956,833.2601
821.1722,798.60803,827.2161,823.1868
824.3956,799.41394,823.1868,820.3663
828.4249,801.8315,824.3956,823.5897
833.663,812.71063,831.2454,821.978
838.9011,823.5897,838.0952,820.7692
839.707,822.7839,841.7216,821.1722
828.022,816.7399,837.6923,810.293
815.12823,807.0696,825.6044,806.26373
813.91943,808.68134,821.5751,811.9048
817.1429,812.3077,822.381,813.1135
827.619,817.1429,827.2161,819.15753
826.4103,816.7399,828.022,815.5311
813.91943,809.4872,820.3663,809.4872
813.5165,815.5311,827.619,815.12823
823.9927,817.9487,832.0513,820.3663
834.4689,829.2308,839.304,827.2161
821.978,826.4103,833.2601,817.5458
803.0403,809.4872,818.3516,807.47253
808.68134,813.5165,823.9927,824.7985
813.1135,823.1868,834.4689,828.022
818.3516,826.0073,834.0659,821.5751
813.1135,812.71063,824.7985,815.5311
800.6227,804.65204,812.71063,811.9048
801.8315,812.71063,812.71063,812.3077
811.0989,820.7692,819.5604,811.50183
807.0696,821.1722,819.15753,805.05493
803.0403,808.2784,817.5458,815.5311
797.3993,819.9634,813.1135,798.20514
796.5934,819.9634,807.8755,790.9524
794.17584,812.71063,803.8461,783.2967
789.7436,809.4872,805.4579,778.0586
796.99634,817.1429,802.23444,777.6557
797.3993,815.9341,788.5348,773.22345
790.14655,804.2491,778.0586,775.64105
791.3553,805.8608,774.83514,778.46155
800.6227,817.1429,779.2674,781.28204
806.26373,817.9487,789.34064,785.31134
801.02563,811.0989,789.7436,784.5055
795.78754,805.8608,783.2967,788.1319
805.4579,808.68134,784.10254,793.36993
817.9487,822.7839,791.75824,801.02563
816.337,815.12823,788.1319,796.99634
809.0842,817.1429,791.75824,793.7729
796.5934,807.0696,783.69965,790.54944
794.17584,809.4872,779.2674,798.60803
801.8315,814.3223,786.9231,801.02563
816.337,818.3516,797.8022,806.26373
810.696,815.5311,790.9524,803.0403
787.72894,805.8608,776.04395,781.28204
784.10254,799.41394,772.8205,779.2674
796.1905,804.65204,782.49084,790.14655
804.2491,820.3663,789.34064,790.14655
798.20514,824.3956,783.69965,779.67035
789.34064,812.3077,775.64105,771.2088
789.34064,804.65204,776.4469,774.43225
793.7729,809.0842,777.25275,776.4469
811.0989,816.337,775.2381,771.6117
811.9048,815.9341,775.2381,771.6117
793.36993,810.293,770.80585,772.8205
793.7729,804.65204,769.59705,767.1795
803.8461,812.71063,780.07324,774.0293
807.8755,820.3663,784.90845,780.07324
814.3223,819.9634,788.93774,784.10254
812.3077,816.337,784.90845,790.9524
802.6374,815.5311,780.4762,791.3553
801.8315,815.5311,782.8938,793.7729
806.26373,814.3223,786.9231,796.99634
807.47253,817.9487,794.9817,795.78754
796.99634,817.1429,794.17584,794.9817
795.38464,806.26373,790.14655,801.02563
802.6374,805.4579,795.38464,807.47253
804.65204,817.5458,795.78754,801.8315
806.6667,819.15753,793.36993,792.1612
801.8315,811.50183,792.96704,790.9524
794.57874,804.2491,785.7143,789.7436
792.1612,806.6667,780.87915,784.5055
794.9817,818.7546,785.31134,781.685
802.6374,823.9927,788.93774,784.10254
805.05493,815.9341,779.2674,781.685
809.89014,815.5311,776.8498,781.685
826.4103,823.1868,786.9231,795.38464
833.2601,825.6044,791.3553,795.78754
820.7692,808.68134,784.5055,788.93774
808.2784,796.1905,782.49084,786.1172
810.696,796.1905,783.2967,792.1612
801.02563,811.0989,772.01465,774.83514
820.3663,809.0842,783.2967,796.5934
824.3956,822.7839,788.5348,795.38464
821.1722,812.71063,784.90845,784.5055
816.7399,802.6374,780.87915,790.14655
813.91943,800.2198,781.685,797.8022
814.7253,807.0696,785.7143,795.78754
814.3223,812.3077,793.7729,798.20514
809.89014,801.02563,789.7436,795.38464
797.3993,785.7143,778.86444,795.38464
796.5934,792.96704,788.93774,800.2198
807.0696,803.44324,794.57874,806.6667
807.0696,808.68134,794.9817,800.6227
790.54944,783.69965,778.46155,794.9817
794.17584,797.3993,791.75824,793.7729
816.7399,813.1135,796.5934,805.4579
810.696,817.9487,794.17584,794.9817
801.4286,814.7253,785.7143,781.685
806.26373,811.50183,781.685,788.5348
817.5458,810.696,777.6557,796.99634
823.1868,819.9634,782.0879,798.60803
822.381,821.978,796.99634,799.81683
809.0842,797.3993,794.57874,798.20514
810.696,790.14655,785.31134,801.02563
795.38464,788.5348,789.34064,802.6374
809.4872,800.2198,793.36993,807.8755
805.8608,801.8315,782.0879,791.75824
819.5604,814.7253,792.5641,794.17584
822.7839,808.68134,789.7436,803.0403
807.8755,792.5641,781.685,798.60803
819.9634,801.8315,787.326,805.05493
814.7253,796.1905,784.90845,804.2491
822.7839,804.2491,788.5348,809.4872
817.1429,803.44324,790.14655,804.65204
805.05493,811.0989,790.14655,786.9231
811.9048,798.20514,785.31134,802.6374
810.293,799.011,787.72894,804.2491
807.47253,802.6374,790.9524,801.8315
813.5165,805.4579,793.7729,808.2784
819.9634,804.2491,796.1905,810.696
809.89014,790.14655,787.72894,804.65204
812.3077,790.14655,794.57874,816.337
818.3516,805.4579,804.65204,821.978
814.3223,816.337,803.0403,812.71063
807.0696,811.9048,794.57874,801.8315
808.68134,805.8608,784.10254,797.8022
814.7253,807.47253,786.1172,801.4286
807.8755,804.65204,794.57874,799.011
813.5165,805.05493,800.6227,799.41394
811.9048,799.81683,799.011,794.17584
799.41394,786.52014,790.54944,787.326
798.60803,784.5055,786.52014,794.17584
801.4286,788.5348,784.90845,794.57874
808.68134,796.5934,791.3553,790.54944
806.6667,799.011,797.3993,790.54944
796.99634,787.72894,791.75824,790.14655
796.99634,782.0879,784.10254,787.326
803.44324,793.36993,787.326,794.57874
812.71063,810.696,799.81683,807.8755
814.3223,810.696,803.44324,810.696
804.2491,796.99634,796.1905,804.2491
802.23444,793.36993,792.5641,808.68134
803.44324,795.38464,798.60803,809.89014
800.6227,792.96704,801.02563,799.81683
799.81683,792.1612,795.78754,792.1612
791.75824,784.5055,787.72894,790.54944
785.31134,776.4469,786.9231,792.96704
786.9231,787.326,792.5641,796.5934
795.78754,801.02563,799.011,799.41394
799.41394,803.44324,795.38464,796.99634
791.3553,791.75824,784.10254,785.31134
790.9524,782.49084,777.6557,785.31134
794.57874,784.5055,778.86444,789.7436
807.8755,796.1905,788.1319,792.5641
820.3663,803.44324,793.7729,794.9817
815.5311,795.78754,785.7143,782.49084
814.7253,792.5641,780.87915,790.54944
820.7692,796.5934,787.326,802.23444
823.1868,798.60803,792.5641,800.2198
828.8278,808.2784,796.1905,805.4579
826.0073,803.8461,794.57874,804.2491
813.1135,790.54944,783.69965,797.3993
808.68134,792.1612,780.4762,796.1905
816.7399,798.60803,790.14655,805.05493
822.381,808.2784,800.6227,807.8755
810.696,807.0696,793.7729,796.99634
802.23444,795.38464,788.1319,794.17584
799.011,787.326,788.93774,796.5934
803.8461,795.38464,797.3993,803.0403
816.337,810.696,813.1135,812.3077
815.12823,815.5311,812.3077,814.3223
803.8461,801.8315,798.60803,804.65204
796.1905,789.34064,789.34064,795.78754
798.20514,796.99634,795.38464,796.1905
803.8461,803.0403,799.41394,799.41394
800.2198,798.60803,790.9524,793.36993
794.57874,792.1612,786.52014,791.3553
789.34064,786.52014,785.31134,785.31134
797.3993,790.54944,788.1319,782.49084
811.50183,802.6374,795.78754,792.96704
809.0842,803.8461,796.5934,795.38464
799.41394,790.9524,788.1319,790.54944
798.60803,785.7143,783.69965,792.96704
802.6374,789.7436,791.75824,799.41394
811.0989,802.6374,803.8461,800.2198
813.1135,806.26373,805.8608,798.60803
803.0403,792.1612,795.78754,799.011
800.6227,791.3553,792.96704,804.2491
807.8755,799.011,796.1905,808.2784
809.4872,799.81683,798.60803,806.6667
805.8608,794.9817,794.17584,804.65204
803.8461,796.5934,790.14655,802.6374
796.99634,792.5641,784.10254,795.78754
794.17584,790.54944,783.2967,796.1905
796.1905,798.20514,793.36993,801.02563
798.20514,804.65204,802.23444,801.02563
795.38464,797.3993,799.81683,803.0403
784.90845,781.685,785.31134,795.38464
786.1172,786.1172,786.1172,791.3553
799.011,798.20514,796.99634,800.6227
811.50183,807.47253,799.41394,807.0696
810.293,801.4286,794.17584,802.6374
801.8315,787.326,787.72894,793.7729
806.26373,790.54944,794.57874,801.02563
817.1429,797.8022,801.02563,800.6227
814.7253,801.4286,799.41394,787.72894
806.6667,794.57874,793.36993,790.9524
803.0403,790.14655,786.9231,788.1319
801.4286,794.9817,787.72894,783.69965
803.44324,794.17584,789.34064,787.72894
809.89014,797.3993,790.14655,790.14655
806.6667,796.99634,787.72894,783.2967
801.4286,788.93774,784.10254,786.9231
804.65204,792.96704,787.72894,803.0403
806.6667,798.20514,792.5641,806.6667
812.71063,805.4579,801.4286,814.7253
805.4579,804.2491,801.4286,810.696
796.1905,794.57874,790.9524,795.78754
793.36993,788.1319,784.5055,791.75824
793.7729,790.14655,789.7436,797.8022
801.8315,796.1905,798.20514,799.41394
802.23444,795.78754,799.41394,796.5934
795.78754,788.5348,795.78754,795.78754
791.75824,788.93774,792.96704,791.75824
790.54944,794.17584,795.78754,791.3553
788.5348,790.14655,798.60803,782.8938
792.1612,792.96704,802.23444,784.10254
786.9231,793.36993,799.011,792.1612
780.4762,784.90845,792.5641,788.93774
785.31134,785.31134,791.75824,782.8938
795.38464,793.7729,799.81683,782.0879
798.20514,796.1905,798.20514,780.87915
799.011,788.5348,788.1319,780.4762
809.4872,790.9524,794.57874,791.3553
814.3223,800.6227,802.6374,800.6227
819.9634,810.696,808.68134,808.2784
822.381,816.7399,811.0989,809.4872
811.50183,807.0696,800.6227,803.44324
803.44324,792.5641,794.9817,799.41394
807.8755,793.36993,800.2198,799.41394
809.0842,806.26373,803.0403,802.6374
798.60803,793.36993,796.1905,796.1905
799.81683,788.5348,794.57874,793.7729
812.71063,803.8461,806.26373,803.8461
806.26373,794.9817,798.20514,802.6374
805.05493,799.41394,803.44324,805.05493
803.44324,802.23444,804.2491,797.8022
801.8315,797.8022,798.60803,795.78754
796.5934,783.69965,793.7729,790.54944
796.5934,781.685,793.36993,786.1172
800.2198,791.75824,796.5934,786.1172
787.326,792.1612,791.3553,781.685
776.4469,783.2967,778.46155,771.6117
781.685,782.49084,781.28204,778.0586
791.75824,788.5348,792.5641,788.1319
800.6227,800.2198,802.23444,790.9524
797.3993,796.5934,798.60803,787.326
799.011,797.8022,800.2198,789.34064
787.72894,785.7143,789.34064,782.0879
786.52014,782.49084,784.10254,782.0879
796.99634,792.5641,790.14655,792.5641
803.44324,802.23444,797.3993,792.5641
794.9817,797.3993,795.78754,786.9231
788.1319,794.17584,791.3553,785.7143
794.57874,792.96704,788.93774,788.5348
808.2784,798.60803,795.38464,805.8608
814.3223,807.47253,806.26373,815.5311
810.293,804.2491,801.02563,805.4579
799.41394,792.96704,784.90845,797.3993
794.57874,789.34064,784.5055,800.2198
795.78754,789.34064,788.5348,799.41394
800.6227,799.41394,797.3993,800.2198
806.26373,805.8608,805.4579,802.6374
794.9817,796.5934,798.60803,796.5934
780.07324,788.93774,788.5348,791.75824
784.90845,793.36993,792.96704,792.1612
797.3993,805.05493,799.81683,792.1612
801.02563,806.26373,796.99634,789.34064
791.3553,794.9817,788.5348,784.5055
790.54944,788.1319,783.2967,782.0879
792.96704,794.57874,787.326,782.49084
806.6667,807.0696,801.8315,799.011
817.9487,810.293,805.4579,804.65204
803.8461,803.0403,799.41394,802.6374
795.78754,791.3553,790.9524,805.8608
800.6227,790.14655,791.75824,809.4872
807.8755,798.60803,803.8461,813.1135
814.7253,799.81683,808.2784,808.2784
806.6667,794.9817,799.81683,803.0403
794.9817,790.14655,790.54944,801.8315
800.2198,793.36993,792.96704,808.68134
815.5311,803.44324,800.2198,811.50183
810.293,806.26373,803.44324,807.0696
798.60803,799.011,797.8022,797.3993
795.38464,793.7729,790.14655,795.38464
798.20514,800.6227,793.7729,801.4286
801.8315,802.6374,796.5934,801.4286
805.05493,802.6374,801.02563,799.81683
803.44324,800.6227,804.2491,801.4286
788.5348,792.5641,786.9231,783.69965
792.5641,798.60803,792.1612,788.93774
798.20514,807.8755,799.41394,785.7143
796.1905,805.05493,795.78754,778.86444
787.72894,794.57874,788.5348,780.4762
786.1172,790.9524,790.14655,783.69965
796.99634,793.7729,794.57874,790.14655
811.9048,807.8755,803.0403,807.8755
811.9048,808.68134,804.65204,804.2491
799.011,791.75824,794.57874,786.9231
794.17584,795.38464,793.36993,790.14655
788.5348,778.46155,787.72894,787.326
792.1612,781.685,792.96704,794.9817
802.23444,791.75824,803.0403,802.6374
797.8022,796.5934,802.6374,801.4286
790.54944,791.75824,793.7729,798.20514
795.78754,784.5055,792.96704,802.23444
796.99634,785.7143,794.57874,799.81683
793.36993,791.75824,794.17584,798.20514
799.011,797.3993,799.011,806.6667
800.6227,794.57874,794.9817,805.4579
788.93774,785.7143,785.7143,801.8315
787.72894,785.31134,784.5055,804.2491
792.96704,796.5934,791.3553,803.44324
791.75824,804.65204,796.5934,796.99634
792.5641,802.6374,792.96704,794.17584
792.1612,796.5934,786.1172,788.1319
790.54944,790.14655,785.7143,780.87915
799.011,792.96704,794.17584,791.3553
811.0989,806.26373,800.2198,798.60803
807.47253,806.6667,799.011,796.5934
799.41394,796.1905,791.3553,794.17584
801.8315,795.78754,788.93774,791.3553
807.47253,801.02563,797.8022,795.38464
807.47253,802.6374,799.81683,792.5641
801.4286,797.3993,787.72894,778.0586
794.9817,783.69965,776.4469,776.8498
792.96704,783.2967,780.07324,787.72894
795.38464,789.34064,786.1172,795.78754
806.26373,794.9817,791.75824,802.23444
803.44324,794.57874,788.1319,799.011
788.1319,785.31134,781.28204,788.5348
788.1319,784.10254,785.31134,795.78754
796.1905,789.7436,790.9524,803.0403
801.02563,794.9817,792.5641,803.0403
799.81683,798.60803,790.9524,804.65204
789.7436,791.75824,788.1319,797.3993
784.10254,786.9231,788.1319,797.8022
800.6227,796.99634,802.6374,790.9524
791.3553,790.54944,795.38464,799.81683
800.6227,798.20514,799.81683,783.69965
800.2198,792.5641,794.9817,788.5348
797.3993,793.7729,794.57874,791.3553
799.81683,796.99634,799.41394,796.99634
805.8608,800.6227,805.4579,803.0403
807.0696,800.6227,803.8461,797.8022
790.54944,785.7143,790.9524,780.87915
785.31134,781.685,786.52014,780.07324
798.20514,790.54944,793.7729,790.14655
796.1905,794.17584,800.6227,787.72894
802.23444,802.23444,807.8755,794.9817
801.02563,794.9817,801.4286,792.5641
796.1905,782.8938,791.75824,790.14655
794.17584,783.69965,786.9231,788.5348
800.2198,792.1612,796.5934,790.14655
813.1135,803.8461,812.71063,807.47253
808.68134,798.60803,808.68134,806.6667
797.8022,785.7143,795.78754,797.3993
797.3993,784.10254,790.14655,793.7729
808.2784,791.75824,791.75824,794.9817
810.293,799.011,798.20514,791.3553
799.41394,788.1319,790.54944,782.49084
795.78754,780.07324,785.7143,791.75824
790.14655,786.9231,787.326,796.99634
789.7436,790.14655,788.93774,790.54944
795.78754,792.1612,792.96704,791.3553
788.5348,790.9524,790.54944,793.7729
788.5348,790.54944,788.1319,791.75824
794.9817,793.36993,789.7436,788.93774
800.6227,795.78754,793.7729,789.7436
806.6667,805.05493,801.4286,795.38464
801.8315,804.2491,801.4286,794.57874
794.57874,794.9817,795.38464,791.3553
788.1319,790.9524,796.99634,788.5348
792.5641,793.36993,800.2198,793.7729
801.8315,799.011,801.02563,797.8022
798.20514,794.9817,797.8022,791.3553
787.72894,789.34064,791.75824,791.75824
790.9524,789.34064,794.17584,801.4286
805.4579,794.9817,800.6227,804.2491
813.5165,801.4286,806.26373,806.6667
810.293,801.02563,804.65204,807.0696
802.6374,796.99634,802.6374,797.8022
801.8315,795.78754,802.6374,798.60803
801.8315,798.20514,803.8461,802.23444
805.4579,805.4579,806.6667,803.0403
812.3077,809.4872,811.0989,811.9048
804.65204,799.011,803.0403,809.4872
793.36993,785.7143,786.52014,789.34064
794.17584,784.90845,786.9231,786.52014
797.8022,793.7729,796.1905,793.36993
799.81683,791.75824,799.011,790.9524
788.5348,777.6557,787.72894,779.2674
782.0879,773.6264,780.4762,773.6264
796.1905,784.10254,789.7436,781.28204
777.25275,772.4176,777.6557,770.0
801.02563,792.1612,791.3553,780.4762
799.011,791.3553,786.1172,774.83514
788.1319,784.90845,782.49084,772.4176
800.2198,796.99634,795.38464,787.72894
809.0842,806.26373,802.6374,788.93774
793.7729,787.326,783.2967,771.2088
800.2198,799.011,795.78754,779.2674
786.1172,781.685,786.52014,794.57874
789.7436,784.90845,788.1319,798.60803
788.93774,788.93774,790.14655,783.2967
788.5348,790.9524,792.96704,796.5934
788.93774,789.34064,794.57874,794.9817
785.7143,786.1172,787.326,796.5934
787.326,783.69965,789.7436,804.65204
791.75824,792.96704,795.78754,805.8608
792.5641,801.02563,798.60803,798.20514
788.93774,796.1905,796.99634,795.78754
781.28204,786.52014,788.93774,787.326
780.87915,788.1319,784.90845,786.9231
782.0879,789.7436,789.7436,786.52014
794.9817,797.8022,800.2198,786.9231
795.38464,801.02563,799.41394,784.10254
784.5055,788.93774,790.14655,779.67035
781.685,789.34064,788.5348,783.2967
784.5055,797.3993,788.93774,784.5055
800.6227,801.8315,796.1905,785.31134
800.6227,797.3993,796.99634,788.93774
795.78754,786.9231,788.5348,785.7143
795.78754,790.14655,784.10254,782.49084
808.68134,803.8461,803.0403,790.14655
802.23444,801.02563,790.14655,783.69965
812.71063,810.696,801.8315,791.3553
806.26373,803.44324,800.6227,792.96704
791.75824,790.9524,795.38464,789.7436
793.36993,791.75824,794.57874,790.54944
805.4579,800.6227,801.4286,801.02563
805.05493,802.6374,806.26373,803.44324
794.57874,794.17584,798.60803,793.36993
788.5348,786.52014,790.14655,794.17584
790.14655,789.7436,791.75824,799.81683
799.81683,800.6227,801.02563,805.4579
798.60803,804.2491,804.65204,805.8608
790.9524,791.3553,794.9817,803.8461
788.93774,786.9231,785.7143,797.8022
790.14655,789.7436,787.326,795.38464
794.9817,792.5641,792.96704,797.8022
793.7729,800.2198,794.9817,792.1612
788.5348,796.1905,791.75824,782.49084
782.8938,786.1172,786.1172,778.86444
787.72894,788.5348,786.9231,785.31134
809.89014,803.8461,802.6374,790.54944
802.6374,800.6227,796.5934,783.69965
803.0403,797.8022,796.1905,792.5641
796.5934,786.52014,784.10254,789.7436
796.5934,791.75824,785.31134,782.0879
803.0403,795.78754,792.96704,791.75824
811.9048,804.2491,801.4286,791.75824
807.47253,798.20514,796.5934,792.1612
797.3993,789.7436,788.5348,788.5348
795.78754,792.96704,791.75824,792.5641
792.96704,795.38464,792.5641,796.99634
800.2198,804.2491,794.9817,799.81683
778.0586,783.2967,786.9231,797.3993
782.49084,788.5348,788.5348,798.20514
790.14655,794.57874,797.8022,794.9817
788.1319,795.78754,799.41394,793.36993
782.0879,788.1319,790.9524,794.17584
778.0586,776.8498,782.8938,787.72894
782.49084,786.9231,789.7436,791.3553
792.5641,796.1905,801.4286,802.23444
798.20514,798.60803,804.65204,801.02563
799.81683,802.6374,796.99634,803.0403
783.2967,788.5348,792.5641,801.4286
797.3993,799.81683,801.4286,795.38464
790.54944,790.14655,795.38464,793.36993
782.49084,783.69965,790.9524,779.2674
785.7143,791.3553,796.1905,777.25275
786.52014,791.75824,795.78754,781.685
780.4762,782.0879,786.9231,777.25275
780.07324,779.67035,786.1172,781.28204
784.10254,783.2967,789.7436,789.34064
801.02563,796.99634,796.99634,801.8315
801.8315,804.2491,800.6227,798.20514
786.9231,793.36993,792.1612,786.52014
788.5348,784.10254,786.1172,785.31134
796.99634,788.93774,790.54944,796.99634
802.23444,798.20514,798.60803,805.8608
814.3223,803.0403,806.6667,809.89014
811.50183,796.5934,802.6374,811.50183
794.17584,786.52014,789.34064,802.23444
796.1905,792.1612,794.57874,801.4286
799.41394,796.1905,799.81683,811.9048
796.1905,799.011,797.8022,808.68134
789.34064,794.17584,796.99634,797.8022
787.72894,792.96704,796.1905,800.6227
785.31134,784.90845,788.93774,793.36993
787.326,784.5055,784.5055,791.75824
799.011,801.02563,796.5934,797.3993
789.7436,786.9231,783.69965,786.52014
802.6374,798.60803,795.78754,794.57874
791.75824,785.7143,783.69965,788.1319
801.8315,795.38464,788.93774,792.96704
804.2491,801.02563,796.1905,792.1612
787.326,783.2967,782.0879,778.86444
782.8938,774.0293,778.46155,779.67035
805.05493,804.65204,794.57874,794.9817
789.34064,777.25275,783.2967,780.87915
792.5641,778.86444,785.7143,781.685
799.81683,770.80585,788.5348,796.1905
792.96704,770.0,777.6557,794.9817
776.4469,781.28204,771.2088,779.2674
796.99634,792.5641,784.10254,797.8022
810.293,799.011,793.7729,806.26373
800.2198,792.1612,790.54944,799.81683
793.7729,786.52014,787.72894,800.6227
776.8498,778.0586,769.59705,780.07324
793.36993,784.90845,784.5055,803.8461
806.26373,803.44324,798.60803,809.4872
801.4286,799.81683,792.1612,804.2491
786.52014,788.5348,786.52014,794.9817
796.99634,793.7729,792.5641,806.26373
782.8938,786.1172,787.326,798.60803
790.9524,796.1905,791.75824,799.41394
798.20514,796.99634,793.7729,798.20514
792.5641,786.9231,785.7143,788.93774
783.2967,782.0879,777.25275,783.69965
788.1319,784.10254,782.0879,792.1612
796.1905,791.3553,788.93774,794.17584
805.05493,799.41394,793.36993,799.011
802.23444,793.7729,786.9231,787.72894
793.36993,782.8938,778.46155,779.67035
813.91943,802.23444,796.5934,793.7729
802.23444,789.7436,785.31134,788.1319
815.5311,805.05493,799.011,791.75824
805.4579,798.60803,791.3553,784.90845
801.4286,790.14655,785.31134,786.1172
799.81683,787.72894,784.5055,793.36993
804.2491,795.38464,791.3553,799.41394
811.9048,801.8315,797.3993,796.5934
805.4579,796.1905,793.7729,785.31134
792.1612,784.90845,785.31134,781.685
784.90845,775.64105,779.67035,782.49084
792.96704,780.07324,788.1319,784.90845
803.8461,798.60803,802.23444,791.3553
798.60803,799.41394,800.6227,791.3553
792.1612,786.9231,790.14655,790.9524
794.17584,792.96704,790.54944,797.3993
794.57874,798.20514,794.17584,798.20514
800.6227,799.81683,803.0403,797.8022
805.05493,799.011,808.2784,801.8315
788.5348,787.326,797.3993,794.57874
794.9817,793.36993,800.6227,798.60803
790.14655,786.52014,795.38464,788.5348
806.6667,800.6227,807.0696,801.8315
799.011,791.75824,794.9817,794.17584
788.1319,784.90845,790.9524,794.9817
799.011,797.3993,803.8461,794.9817
791.75824,783.2967,792.5641,799.81683
799.81683,785.31134,794.57874,795.38464
804.65204,788.93774,799.011,792.5641
795.38464,785.31134,796.99634,791.3553
795.38464,785.7143,796.1905,796.5934
804.2491,795.78754,804.65204,797.8022
809.0842,798.20514,805.05493,797.8022
803.44324,790.54944,801.02563,791.75824
798.20514,786.1172,794.17584,801.02563
794.9817,781.685,785.31134,795.38464
805.05493,792.96704,796.1905,803.8461
791.75824,779.67035,783.69965,798.20514
807.0696,796.99634,797.8022,803.8461
801.8315,786.1172,792.96704,798.60803
798.60803,785.31134,791.75824,800.2198
799.81683,795.38464,796.5934,801.4286
801.02563,802.6374,805.05493,801.8315
804.65204,807.8755,809.0842,798.60803
800.6227,800.2198,799.81683,788.5348
790.54944,785.31134,787.72894,784.90845
790.54944,786.1172,787.72894,787.72894
796.1905,793.36993,796.1905,790.54944
804.65204,799.41394,802.6374,795.38464
799.41394,796.1905,797.3993,790.14655
784.90845,782.8938,785.31134,780.87915
803.44324,803.8461,804.2491,793.36993
789.34064,789.34064,790.54944,785.7143
809.0842,806.26373,806.6667,796.5934
801.02563,796.99634,797.8022,790.14655
788.1319,790.9524,786.52014,786.9231
786.1172,788.5348,787.326,792.96704
798.20514,791.3553,794.17584,799.41394
805.8608,801.02563,802.23444,799.41394
801.02563,796.5934,799.41394,792.96704
789.7436,782.49084,783.2967,790.9524
780.4762,776.8498,779.2674,787.72894
783.2967,782.0879,788.1319,797.8022
791.75824,794.9817,789.34064,789.7436
781.685,785.7143,783.69965,788.5348
774.83514,778.0586,778.0586,790.54944
779.2674,779.67035,778.0586,787.72894
783.2967,782.49084,782.8938,788.1319
793.36993,786.9231,790.14655,790.9524
787.72894,786.1172,788.5348,785.7143
780.4762,779.67035,783.69965,782.0879
782.0879,776.04395,782.0879,781.685
786.9231,789.34064,788.93774,801.4286
786.1172,785.31134,790.14655,778.86444
789.7436,795.38464,794.9817,771.6117
790.14655,785.31134,786.1172,771.2088
779.67035,778.46155,782.0879,775.2381
781.28204,782.8938,788.1319,785.31134
788.5348,790.9524,794.57874,793.36993
792.5641,801.4286,795.78754,789.34064
796.1905,800.6227,792.5641,786.9231
789.7436,790.54944,790.54944,788.93774
790.54944,789.34064,792.5641,791.3553
796.5934,794.9817,794.17584,790.9524
796.5934,796.5934,797.8022,792.5641
791.75824,792.5641,794.9817,790.9524
782.49084,784.10254,789.34064,785.7143
785.31134,784.10254,789.34064,791.75824
802.6374,803.0403,801.8315,802.23444
801.4286,799.41394,798.60803,800.2198
784.10254,785.31134,788.5348,790.9524
784.10254,784.90845,791.75824,793.36993
787.326,790.54944,793.7729,795.38464
789.7436,793.7729,795.38464,797.8022
790.9524,788.1319,790.14655,792.96704
780.07324,776.8498,780.87915,779.67035
774.83514,777.25275,779.67035,775.64105
790.14655,790.9524,790.9524,796.5934
784.10254,787.326,791.3553,780.4762
797.3993,800.6227,800.6227,782.8938
792.96704,795.78754,794.57874,777.25275
798.60803,796.99634,796.99634,787.72894
808.68134,801.8315,802.6374,798.20514
812.3077,808.68134,809.0842,801.02563
806.6667,812.71063,812.3077,801.8315
798.20514,803.0403,800.6227,792.5641
802.23444,794.57874,797.3993,800.2198
798.20514,803.44324,798.60803,779.2674
808.68134,804.2491,805.8608,811.0989
810.696,811.50183,809.4872,811.9048
812.3077,809.89014,805.4579,809.4872
805.05493,803.8461,796.1905,801.02563
802.6374,799.011,791.75824,802.6374
797.8022,795.78754,797.3993,803.44324
795.38464,796.99634,796.99634,800.2198
809.0842,806.26373,800.6227,801.02563
810.293,806.26373,804.65204,801.4286
801.02563,795.78754,795.38464,797.8022
796.5934,792.5641,790.9524,795.78754
811.0989,803.0403,798.60803,812.71063
821.1722,812.3077,808.68134,820.7692
803.0403,800.6227,799.41394,800.6227
796.5934,796.99634,796.99634,802.6374
802.6374,801.8315,803.0403,809.0842
807.0696,799.41394,801.8315,799.41394
809.4872,796.99634,801.4286,791.3553
798.20514,795.38464,792.96704,784.90845
797.3993,798.60803,797.3993,792.5641
802.6374,794.17584,796.99634,783.2967
801.4286,801.8315,801.02563,800.6227
808.68134,805.8608,803.0403,805.05493
791.75824,797.3993,796.1905,804.2491
798.60803,804.65204,800.6227,801.8315
798.20514,792.1612,796.1905,807.47253
796.1905,793.7729,797.8022,802.23444
801.4286,799.011,805.8608,805.4579
789.34064,792.1612,795.38464,803.44324
783.69965,786.9231,791.3553,804.65204
788.5348,794.57874,794.57874,805.4579
796.99634,804.65204,801.4286,805.8608
803.44324,801.02563,806.6667,803.44324
795.38464,799.81683,800.2198,803.44324
786.9231,792.1612,790.14655,796.99634
787.72894,793.36993,791.3553,797.3993
787.72894,797.3993,790.9524,793.7729
791.3553,799.41394,792.96704,792.1612
796.5934,800.6227,795.78754,795.38464
788.93774,784.10254,780.4762,793.36993
799.81683,794.57874,788.1319,797.8022
804.2491,797.8022,800.6227,804.2491
786.9231,788.5348,783.2967,791.75824
802.6374,800.2198,803.44324,795.78754
797.3993,793.7729,790.14655,785.31134
787.72894,779.67035,780.87915,784.90845
790.9524,786.9231,784.10254,790.14655
803.0403,802.23444,794.57874,799.011
806.6667,805.4579,802.23444,803.0403
797.8022,795.38464,796.5934,797.8022
783.2967,782.8938,783.2967,791.75824
776.04395,779.2674,781.685,792.1612
788.5348,794.17584,790.14655,798.60803
803.0403,803.0403,801.8315,802.23444
799.011,796.5934,795.38464,796.5934
800.2198,794.9817,793.36993,803.8461
804.65204,796.5934,796.99634,809.4872
804.65204,801.8315,798.20514,810.696
813.1135,807.47253,805.8608,815.5311
809.4872,804.2491,803.8461,811.0989
796.5934,794.57874,787.72894,804.65204
792.5641,793.7729,785.31134,799.41394
795.38464,797.8022,791.3553,800.2198
787.72894,789.34064,792.96704,790.14655
788.5348,783.69965,784.5055,788.93774
784.5055,777.6557,777.25275,782.49084
797.8022,793.7729,797.3993,785.31134
787.326,783.2967,785.7143,780.4762
791.75824,794.57874,792.96704,796.5934
795.78754,790.14655,792.5641,782.0879
784.10254,780.4762,783.69965,770.80585
784.90845,775.64105,783.69965,772.4176
791.75824,781.28204,788.1319,780.4762
792.96704,789.7436,790.9524,776.4469
798.20514,795.78754,791.75824,776.4469
798.20514,794.17584,786.52014,779.67035
799.011,788.5348,786.9231,779.67035
798.20514,790.9524,792.1612,788.1319
801.8315,795.38464,795.38464,790.9524
803.0403,789.7436,792.5641,788.5348
794.9817,785.31134,789.7436,797.8022
797.3993,784.5055,789.34064,796.99634
799.81683,786.9231,792.1612,798.20514
810.293,796.1905,805.05493,805.4579
807.0696,797.8022,806.26373,795.78754
786.1172,784.90845,792.1612,782.8938
777.25275,781.28204,793.36993,785.31134
778.46155,783.2967,791.3553,786.9231
783.2967,789.34064,792.1612,784.90845
790.54944,793.36993,800.6227,787.326
788.1319,787.326,793.7729,780.07324
782.0879,779.67035,782.49084,767.1795
785.7143,786.9231,787.326,772.01465
799.011,800.2198,794.9817,785.7143
805.8608,799.41394,797.8022,791.3553
806.26373,799.81683,799.011,792.1612
801.02563,799.41394,794.9817,796.5934
793.36993,791.75824,790.9524,795.78754
795.38464,799.81683,800.2198,795.78754
799.011,808.2784,805.8608,794.9817
794.9817,801.8315,796.5934,784.5055
790.14655,794.57874,791.75824,783.2967
790.9524,788.5348,794.9817,789.34064
794.17584,791.3553,801.4286,793.36993
801.02563,803.0403,812.3077,797.3993
799.41394,799.011,809.0842,792.1612
782.0879,782.49084,791.3553,782.49084
777.25275,778.0586,785.31134,782.49084
784.90845,780.4762,792.5641,789.7436
792.96704,792.5641,798.60803,794.9817
795.38464,797.8022,798.20514,796.99634
787.326,794.57874,793.36993,794.9817
786.52014,792.96704,790.9524,795.38464
792.5641,801.4286,803.8461,796.1905
798.60803,798.60803,803.0403,792.5641
791.75824,792.5641,798.60803,782.8938
784.5055,788.93774,796.1905,780.87915
780.87915,784.90845,790.14655,780.4762
788.5348,792.96704,797.3993,784.10254
786.52014,800.2198,802.23444,784.90845
787.72894,795.38464,794.9817,795.78754
774.43225,790.14655,792.1612,774.43225
770.80585,779.2674,784.90845,772.4176
794.57874,795.38464,795.38464,784.90845
800.2198,797.8022,798.60803,786.9231
790.54944,786.52014,788.5348,790.9524
777.6557,782.8938,785.31134,780.4762
784.90845,782.8938,784.10254,795.38464
785.31134,780.87915,779.67035,791.3553
788.5348,783.69965,784.5055,794.57874
791.75824,795.78754,796.1905,799.41394
791.3553,796.5934,792.5641,792.96704
786.52014,786.9231,784.90845,795.78754
781.28204,785.7143,782.8938,799.011
789.34064,797.8022,792.1612,799.41394
796.99634,802.23444,803.44324,805.05493
792.1612,793.7729,805.4579,803.0403
780.4762,785.7143,794.57874,795.78754
778.86444,794.17584,792.96704,797.3993
796.99634,804.65204,811.0989,800.6227
788.93774,803.8461,806.6667,802.23444
782.8938,792.1612,792.1612,780.07324
785.31134,790.14655,788.5348,789.7436
792.5641,798.20514,792.96704,791.3553
792.1612,799.81683,803.8461,786.52014
801.02563,801.4286,796.99634,790.54944
803.44324,800.2198,798.60803,792.5641
788.1319,789.7436,788.5348,786.9231
780.87915,784.5055,785.7143,780.87915
793.36993,795.38464,801.02563,787.326
803.44324,804.65204,809.89014,791.75824
807.0696,808.2784,811.0989,792.5641
797.8022,795.78754,799.41394,790.9524
793.36993,790.54944,794.17584,792.1612
805.05493,799.011,803.8461,802.6374
813.1135,807.8755,809.89014,812.3077
812.3077,807.0696,804.2491,807.47253
803.8461,795.38464,793.36993,801.02563
798.20514,787.72894,792.1612,799.81683
798.20514,790.9524,791.3553,797.8022
800.6227,796.99634,790.14655,796.1905
799.41394,798.20514,787.72894,789.7436
799.81683,791.3553,774.0293,790.9524
807.8755,785.31134,773.6264,801.02563
797.8022,781.28204,791.75824,797.3993
790.9524,790.9524,807.8755,796.1905
798.20514,800.2198,813.91943,803.44324
793.36993,788.1319,803.8461,802.23444
790.54944,782.0879,800.6227,804.65204
787.326,782.49084,803.44324,794.9817
785.7143,789.7436,806.26373,788.93774
792.1612,794.9817,809.0842,796.5934
791.75824,786.9231,803.0403,789.34064
790.14655,781.28204,794.9817,787.72894
795.78754,786.52014,795.38464,790.9524
804.65204,792.1612,801.02563,790.9524
814.3223,798.20514,808.2784,790.9524
813.1135,796.5934,806.26373,798.60803
804.65204,788.93774,797.3993,796.1905
812.3077,800.6227,806.6667,802.23444
806.6667,792.1612,798.60803,792.1612
815.5311,805.4579,810.696,808.68134
808.68134,799.011,801.4286,803.0403
795.38464,791.75824,786.9231,790.14655
793.36993,792.5641,790.9524,790.54944
812.71063,809.0842,813.91943,811.50183
813.91943,807.8755,811.9048,811.9048
804.65204,798.20514,801.4286,808.2784
812.3077,801.4286,807.0696,813.91943
817.1429,807.8755,809.0842,817.5458
799.41394,798.60803,801.8315,801.4286
817.1429,811.50183,809.4872,815.12823
814.3223,810.293,811.0989,817.1429
805.8608,801.8315,803.8461,815.12823
801.4286,801.02563,798.60803,805.4579
801.8315,805.4579,798.60803,803.44324
811.50183,812.3077,805.05493,806.26373
816.337,815.12823,809.89014,805.05493
804.65204,805.4579,802.23444,796.5934
806.26373,801.8315,800.6227,796.99634
820.7692,811.50183,807.0696,807.47253
829.6337,821.978,812.71063,803.8461
826.0073,821.978,814.3223,799.011
815.5311,811.50183,805.05493,798.20514
809.89014,804.65204,795.78754,796.5934
806.6667,805.05493,797.3993,801.4286
810.696,808.2784,805.8608,803.44324
815.9341,805.8608,806.6667,798.20514
813.1135,799.81683,801.02563,796.1905
807.0696,797.3993,799.011,800.6227
812.71063,799.81683,805.4579,809.89014
826.0073,813.91943,819.5604,822.381
830.4396,818.3516,824.3956,828.022
823.5897,813.91943,822.381,825.2015
814.7253,810.293,821.5751,826.4103
812.3077,809.4872,821.1722,830.4396
819.5604,819.9634,823.5897,830.84247
815.9341,820.7692,821.978,825.2015
812.3077,815.9341,821.1722,825.6044
807.8755,811.9048,809.4872,820.3663
797.3993,804.65204,800.2198,812.3077
802.6374,813.1135,811.9048,812.3077
813.91943,820.3663,819.9634,810.696
811.50183,813.1135,813.91943,804.65204
799.81683,803.44324,805.4579,799.41394
801.8315,801.4286,803.8461,797.8022
812.71063,811.50183,807.47253,796.1905
811.0989,814.3223,805.05493,788.93774
815.9341,817.5458,809.4872,793.7729
805.4579,805.05493,797.8022,782.8938
807.0696,800.2198,799.81683,786.52014
815.9341,808.68134,807.8755,794.57874
828.022,821.1722,817.1429,799.81683
805.05493,802.6374,807.0696,802.6374
804.65204,805.05493,805.05493,808.2784
814.3223,811.50183,810.696,811.9048
818.7546,805.8608,811.0989,815.9341
815.5311,807.47253,808.2784,816.7399
811.50183,805.4579,807.0696,814.3223
805.05493,796.99634,802.6374,817.5458
822.7839,818.3516,818.3516,800.2198
806.26373,801.4286,807.8755,827.2161
816.337,809.0842,818.7546,828.8278
819.15753,808.68134,821.1722,829.2308
805.4579,800.6227,813.5165,827.619
797.3993,799.41394,810.293,825.6044
801.4286,803.44324,811.9048,823.1868
805.8608,813.1135,814.7253,823.1868
808.2784,816.7399,811.9048,822.381
799.011,805.05493,798.60803,807.8755
787.326,797.8022,789.7436,797.8022
785.7143,794.57874,786.52014,795.78754
794.9817,806.26373,796.5934,794.57874
800.2198,809.4872,802.23444,791.75824
790.54944,795.78754,797.8022,793.36993
778.86444,799.41394,799.41394,786.1172
794.57874,811.9048,813.5165,796.5934
788.1319,805.8608,808.2784,796.99634
786.1172,798.60803,801.4286,797.3993
771.6117,792.1612,791.75824,794.57874
796.5934,806.26373,803.8461,806.26373
809.0842,813.5165,808.2784,819.5604
815.5311,815.12823,819.15753,825.2015
802.6374,808.68134,812.3077,814.7253
791.3553,801.8315,799.011,807.8755
764.7619,791.75824,787.326,783.69965
781.685,796.1905,795.78754,803.8461
791.3553,802.6374,804.2491,805.05493
793.36993,807.0696,811.50183,801.02563
790.9524,801.8315,809.89014,804.65204
788.1319,801.02563,812.3077,803.8461
793.7729,807.8755,815.9341,800.2198
797.8022,811.0989,814.7253,802.23444
798.20514,804.65204,816.7399,798.60803
782.49084,793.36993,796.5934,803.0403
793.7729,800.2198,810.293,794.17584
792.96704,801.8315,806.6667,789.7436
796.5934,806.6667,811.50183,798.60803
804.2491,814.3223,819.5604,802.23444
804.65204,812.71063,820.7692,795.78754
796.1905,807.0696,810.696,799.41394
794.57874,803.8461,806.6667,801.02563
799.011,806.26373,809.4872,800.6227
801.8315,813.1135,813.1135,803.0403
802.6374,815.5311,811.9048,799.011
798.20514,801.4286,804.65204,794.9817
796.1905,786.9231,803.8461,807.0696
808.2784,796.99634,801.8315,815.5311
817.1429,819.15753,805.4579,809.4872
811.0989,820.7692,809.0842,794.9817
806.26373,817.9487,801.4286,794.17584
807.47253,811.0989,805.05493,795.78754
803.44324,810.293,803.8461,796.1905
791.75824,802.6374,799.81683,793.7729
789.34064,799.41394,801.02563,801.02563
790.14655,802.6374,803.0403,799.011
799.41394,804.65204,804.2491,795.78754
805.8608,812.3077,801.02563,803.44324
805.4579,807.0696,803.8461,793.7729
803.8461,806.6667,803.44324,799.011
798.20514,804.65204,796.5934,788.1319
794.9817,801.4286,790.54944,787.326
794.9817,800.6227,790.14655,788.5348
798.60803,803.44324,794.9817,785.31134
807.47253,813.5165,806.6667,784.10254
799.41394,804.65204,799.41394,781.685
790.54944,793.36993,790.54944,775.64105
799.41394,797.3993,796.99634,782.0879
807.47253,802.6374,803.8461,789.7436
812.71063,808.2784,809.89014,791.3553
815.5311,811.0989,809.0842,794.17584
804.65204,805.4579,796.99634,787.72894
801.8315,802.23444,796.1905,791.75824
808.2784,805.8608,801.8315,796.99634
812.71063,808.68134,803.0403,794.57874
804.65204,801.8315,797.3993,795.38464
804.65204,802.23444,796.5934,796.1905
813.91943,809.0842,803.0403,810.696
815.5311,802.23444,807.47253,805.8608
812.3077,805.05493,797.8022,799.41394
806.26373,813.1135,796.5934,790.9524
805.05493,815.5311,803.0403,791.3553
809.4872,819.9634,811.9048,795.38464
811.50183,815.9341,810.696,792.96704
816.7399,805.8608,810.696,813.91943
811.0989,809.89014,801.8315,796.5934
803.0403,803.8461,803.8461,792.96704
798.60803,801.8315,801.4286,796.99634
800.2198,806.26373,800.6227,794.9817
805.05493,813.5165,803.8461,790.54944
799.011,815.5311,804.65204,782.0879
790.14655,809.0842,799.81683,776.8498
791.75824,802.23444,795.38464,777.6557
793.7729,800.6227,793.36993,780.4762
808.2784,809.89014,805.05493,792.5641
818.3516,815.5311,813.5165,792.5641
804.2491,805.8608,800.2198,786.52014
799.011,796.1905,791.3553,796.1905
807.47253,800.6227,797.8022,798.60803
816.337,814.7253,803.0403,795.78754
817.5458,820.3663,809.0842,796.5934
810.696,811.0989,799.41394,788.93774
809.4872,804.2491,789.7436,789.7436
813.91943,802.23444,795.38464,798.20514
815.12823,803.8461,797.8022,803.0403
814.3223,813.1135,798.60803,803.8461
813.5165,816.7399,800.2198,803.8461
801.4286,802.6374,792.5641,798.60803
791.75824,796.99634,789.34064,793.7729
797.3993,804.2491,798.20514,796.5934
802.23444,810.293,805.4579,799.011
782.0879,789.7436,794.17584,784.90845
793.36993,801.8315,800.6227,786.9231
788.5348,795.38464,798.20514,788.5348
797.8022,808.68134,806.26373,796.99634
800.6227,806.6667,799.81683,780.07324
792.5641,800.2198,794.9817,773.22345
783.69965,791.75824,788.93774,769.19415
780.4762,789.7436,785.31134,767.98535
789.34064,799.41394,791.3553,775.64105
800.6227,811.0989,801.4286,782.8938
805.05493,820.7692,805.8608,782.8938
797.3993,813.5165,799.81683,784.90845
792.5641,809.4872,800.2198,793.7729
807.8755,827.619,818.7546,799.011
804.65204,823.5897,818.7546,799.81683
794.57874,806.6667,810.293,795.38464
789.7436,798.60803,807.0696,792.96704
788.93774,796.1905,803.0403,790.14655
797.8022,806.6667,807.47253,793.36993
797.8022,809.4872,806.6667,793.7729
784.90845,801.02563,800.2198,788.5348
784.5055,799.41394,800.6227,793.7729
801.02563,816.337,808.68134,794.9817
793.36993,802.23444,803.8461,803.0403
800.2198,811.50183,811.9048,808.2784
799.41394,817.5458,813.1135,806.6667
800.2198,816.337,810.293,807.0696
800.2198,809.0842,808.68134,809.4872
794.9817,805.05493,806.26373,805.8608
793.36993,804.65204,802.6374,801.4286
794.57874,805.05493,802.6374,796.99634
790.9524,793.36993,798.60803,791.75824
774.83514,776.04395,783.2967,778.0586
775.64105,780.87915,786.52014,778.0586
791.75824,790.9524,799.011,782.49084
802.6374,799.011,802.23444,782.49084
803.8461,796.1905,800.2198,784.90845
799.41394,786.9231,793.36993,788.1319
794.9817,788.1319,783.69965,784.5055
795.38464,796.1905,789.7436,783.2967
809.0842,805.05493,804.65204,791.3553
808.68134,804.65204,803.8461,792.1612
794.57874,794.9817,790.9524,788.1319
793.36993,788.1319,788.5348,790.54944
801.02563,792.96704,796.5934,799.011
811.50183,808.68134,807.0696,808.68134
806.26373,806.26373,805.8608,806.26373
784.90845,791.75824,791.3553,798.20514
786.9231,792.5641,788.1319,804.2491
784.10254,786.9231,785.31134,801.4286
789.34064,804.65204,792.96704,801.4286
792.5641,805.05493,792.96704,797.3993
780.07324,785.7143,782.0879,784.90845
776.4469,775.64105,781.28204,784.10254
780.87915,786.9231,787.326,787.326
778.86444,782.0879,785.31134,788.93774
786.9231,796.1905,795.38464,789.34064
782.0879,786.9231,786.1172,790.9524
783.2967,792.1612,792.1612,788.1319
780.07324,790.9524,786.9231,790.9524
785.31134,796.5934,795.78754,788.93774
797.8022,800.2198,794.57874,791.75824
798.60803,801.02563,799.011,791.75824
795.38464,799.011,791.75824,789.7436
803.44324,802.6374,796.1905,793.36993
814.3223,810.696,808.2784,804.2491
817.1429,810.696,811.0989,803.44324
811.9048,807.47253,806.26373,798.60803
806.26373,802.23444,797.8022,801.8315
803.0403,796.5934,791.75824,804.2491
806.6667,804.2491,800.6227,807.0696
812.3077,809.89014,807.0696,810.696
809.0842,799.41394,798.20514,802.6374
796.99634,786.9231,788.5348,794.9817
795.38464,788.1319,787.72894,801.8315
803.44324,803.0403,796.5934,812.3077
806.26373,811.9048,805.4579,816.7399
800.6227,801.4286,796.5934,809.0842
796.1905,790.54944,788.1319,806.26373
792.96704,790.9524,795.38464,813.5165
801.4286,801.02563,807.0696,819.9634
804.65204,812.3077,809.89014,814.3223
798.60803,811.0989,803.8461,811.9048
796.1905,797.3993,796.5934,817.1429
799.81683,796.1905,799.011,812.3077
807.0696,805.4579,803.8461,813.91943
811.9048,811.0989,808.68134,814.3223
810.293,811.9048,810.293,806.26373
803.0403,803.44324,803.0403,806.26373
803.0403,799.81683,797.8022,808.2784
810.293,803.44324,801.02563,809.89014
817.5458,813.91943,807.8755,810.293
818.3516,817.1429,809.4872,811.9048
807.0696,808.68134,807.47253,816.7399
805.05493,809.0842,803.8461,819.15753
815.5311,813.5165,806.6667,823.1868
821.1722,814.3223,813.1135,824.7985
818.7546,807.8755,814.3223,819.5604
812.3077,792.1612,807.8755,822.381
814.3223,791.75824,809.0842,828.8278
815.5311,814.3223,813.91943,822.381
814.3223,830.0366,815.12823,813.91943
815.9341,825.6044,813.91943,815.9341
805.8608,804.65204,803.8461,811.50183
795.38464,789.34064,797.3993,805.4579
790.9524,790.9524,794.9817,797.8022
792.96704,804.2491,797.3993,792.5641
796.5934,810.293,803.8461,791.3553
790.54944,802.6374,799.81683,785.7143
784.90845,794.17584,791.75824,786.9231
788.1319,791.75824,789.7436,788.93774
796.1905,794.9817,794.17584,791.3553
803.8461,804.65204,801.8315,796.99634
802.6374,804.65204,803.8461,796.1905
801.02563,801.4286,799.81683,796.1905
803.44324,804.2491,800.2198,793.36993
796.5934,799.011,799.41394,793.36993
803.0403,807.47253,803.0403,791.75824
809.0842,809.0842,807.8755,796.1905
802.6374,800.2198,800.6227,796.99634
800.2198,801.4286,798.60803,802.23444
810.293,811.50183,804.2491,807.0696
812.71063,814.3223,808.2784,801.4286
804.2491,805.8608,809.89014,800.6227
792.1612,795.78754,803.8461,794.57874
785.7143,793.7729,793.7729,784.90845
790.9524,798.20514,793.7729,781.685
796.99634,806.26373,799.41394,785.7143
796.99634,801.4286,797.8022,787.72894
791.75824,791.75824,792.5641,784.90845
790.54944,790.54944,790.9524,787.326
794.57874,798.20514,794.9817,794.57874
796.1905,807.0696,802.23444,792.5641
792.96704,801.02563,803.0403,783.69965
787.72894,793.7729,795.38464,784.10254
780.87915,793.36993,790.54944,789.34064
775.2381,792.96704,791.3553,779.2674
798.20514,804.65204,807.47253,788.1319
791.3553,794.17584,793.7729,779.2674
782.8938,786.9231,784.90845,771.2088
790.9524,797.8022,793.36993,778.86444
800.2198,809.0842,801.4286,788.1319
786.52014,800.2198,802.6374,779.2674
810.293,812.71063,808.2784,792.1612
786.52014,794.17584,801.4286,792.5641
792.5641,791.75824,803.44324,796.99634
804.2491,798.60803,809.89014,802.23444
801.4286,807.0696,812.71063,801.02563
795.78754,797.3993,808.68134,799.41394
788.5348,785.31134,799.81683,794.9817
792.1612,788.5348,797.3993,799.011
802.23444,804.2491,808.2784,807.8755
809.4872,813.91943,815.5311,810.293
800.6227,802.23444,802.6374,799.81683
804.65204,805.05493,809.4872,795.78754
786.9231,786.1172,790.54944,789.7436
788.5348,786.1172,794.17584,788.93774
795.38464,797.8022,805.8608,792.1612
799.81683,805.8608,812.3077,793.7729
793.36993,803.0403,804.65204,788.93774
788.5348,794.17584,798.20514,794.57874
790.14655,790.14655,795.38464,794.57874
794.57874,794.57874,796.99634,792.1612
800.2198,803.8461,804.2491,794.9817
792.96704,793.36993,786.1172,778.86444
798.60803,802.6374,799.011,786.1172
783.2967,787.72894,778.0586,774.0293
785.7143,786.52014,780.87915,774.83514
807.8755,794.9817,799.81683,792.1612
801.4286,786.9231,796.1905,788.93774
801.8315,793.36993,799.81683,794.9817
803.0403,797.8022,800.2198,795.78754
807.47253,801.02563,807.0696,796.1905
807.0696,802.23444,804.65204,795.38464
797.3993,790.54944,793.7729,792.5641
791.3553,785.31134,790.54944,799.41394
794.9817,790.9524,792.5641,797.3993
808.2784,799.81683,799.81683,800.6227
805.05493,797.3993,798.20514,788.93774
807.47253,806.26373,806.6667,809.4872
799.011,797.8022,803.8461,807.47253
802.6374,793.36993,802.23444,805.4579
806.6667,801.4286,806.26373,809.4872
808.2784,807.0696,808.2784,811.50183
803.0403,801.02563,803.8461,801.02563
790.14655,787.72894,792.96704,791.3553
780.07324,780.07324,785.7143,784.5055
783.69965,783.2967,788.5348,785.31134
792.1612,792.1612,800.2198,794.17584
799.41394,795.78754,809.0842,794.9817
794.57874,791.75824,802.23444,786.1172
789.7436,784.10254,796.5934,789.34064
789.7436,784.10254,797.3993,791.75824
792.1612,794.57874,803.0403,788.1319
792.96704,799.41394,805.05493,781.28204
789.7436,793.36993,797.8022,782.0879
783.2967,786.9231,793.7729,790.14655
788.1319,785.7143,795.78754,792.96704
803.44324,799.41394,804.2491,795.78754
806.26373,807.8755,808.68134,792.96704
803.44324,799.81683,801.4286,791.75824
792.5641,788.5348,788.5348,791.3553
789.34064,790.54944,786.52014,796.99634
799.41394,795.78754,793.7729,801.02563
807.0696,800.2198,802.6374,800.2198
802.23444,803.0403,803.44324,803.0403
794.9817,796.5934,798.20514,806.26373
799.011,790.14655,799.41394,812.3077
806.26373,787.72894,802.23444,812.71063
809.0842,794.9817,799.011,804.2491
790.14655,801.02563,792.5641,780.87915
801.02563,807.47253,799.81683,790.14655
793.7729,790.14655,785.7143,788.5348
817.1429,811.0989,803.8461,803.44324
807.47253,799.011,792.5641,797.8022
809.89014,809.89014,798.20514,798.60803
799.81683,793.7729,788.93774,790.9524
803.0403,800.6227,789.34064,790.9524
805.8608,796.5934,791.3553,794.9817
818.3516,807.0696,800.6227,796.99634
814.3223,806.6667,796.99634,797.3993
813.1135,794.57874,792.5641,797.8022
821.1722,802.23444,801.02563,808.68134
826.4103,813.1135,805.8608,815.5311
807.47253,790.54944,787.72894,801.02563
818.7546,814.7253,799.011,809.89014
811.0989,801.8315,791.3553,799.81683
807.47253,798.60803,788.5348,803.0403
808.2784,805.8608,796.99634,811.9048
821.5751,817.5458,808.2784,814.7253
824.7985,821.978,809.0842,813.5165
807.0696,805.05493,800.2198,803.44324
795.38464,792.1612,790.9524,799.81683
795.38464,794.17584,792.96704,803.0403
799.81683,799.011,796.99634,798.20514
795.38464,796.1905,790.9524,789.34064
787.326,789.7436,786.1172,783.69965
782.8938,786.9231,785.7143,787.326
790.54944,790.14655,789.34064,799.41394
807.47253,799.41394,796.5934,800.6227
810.696,805.05493,798.60803,798.20514
797.8022,804.2491,796.99634,801.02563
784.90845,792.96704,789.7436,790.9524
782.0879,781.685,783.2967,783.2967
784.90845,788.93774,788.1319,780.07324
795.78754,798.60803,794.17584,782.49084
799.81683,795.38464,793.36993,788.5348
790.9524,786.1172,785.31134,786.1172
793.36993,785.31134,785.7143,788.1319
800.2198,790.14655,793.36993,794.9817
805.8608,793.7729,799.41394,801.8315
811.9048,796.99634,803.8461,810.696
799.81683,786.52014,790.9524,801.02563
793.36993,781.685,783.69965,799.41394
800.2198,789.7436,794.9817,810.293
804.65204,792.5641,799.41394,808.2784
802.23444,793.7729,799.81683,804.65204
792.96704,789.7436,795.78754,799.41394
792.5641,786.1172,793.7729,802.6374
802.6374,795.38464,801.8315,810.696
813.5165,809.0842,810.293,815.9341
810.293,810.293,808.2784,812.71063
798.20514,799.011,799.011,799.41394
797.3993,791.3553,795.38464,794.57874
799.81683,794.9817,799.81683,803.44324
795.38464,797.3993,798.60803,791.3553
797.3993,801.8315,804.65204,800.2198
784.90845,789.34064,788.93774,780.4762
787.72894,794.17584,791.75824,790.9524
780.87915,788.93774,786.9231,779.2674
796.1905,799.81683,796.5934,788.5348
799.81683,804.2491,792.96704,788.93774
792.96704,797.3993,785.7143,787.326
804.65204,807.0696,798.20514,788.93774
788.93774,797.8022,787.326,788.93774
793.7729,801.8315,795.38464,793.36993
800.6227,804.65204,798.20514,793.36993
794.57874,795.78754,791.3553,793.7729
785.7143,784.90845,782.0879,798.20514
787.326,786.52014,781.685,799.41394
802.23444,799.81683,794.17584,805.4579
805.8608,806.26373,795.38464,803.0403
798.60803,801.8315,790.54944,801.02563
794.57874,796.5934,787.326,801.4286
797.3993,796.5934,790.14655,801.8315
804.2491,804.2491,801.02563,804.2491
806.6667,812.71063,806.6667,803.0403
802.23444,806.26373,796.99634,792.5641
794.57874,798.60803,787.72894,790.9524
794.9817,796.1905,786.9231,789.34064
794.17584,798.60803,788.93774,781.28204
802.6374,806.6667,797.8022,786.1172
803.44324,807.8755,799.81683,787.72894
796.1905,794.9817,790.14655,785.7143
796.1905,792.1612,790.14655,792.5641
797.3993,800.6227,796.99634,795.78754
802.23444,807.8755,803.44324,792.1612
805.05493,810.293,807.47253,791.3553
797.3993,804.2491,799.81683,790.14655
790.14655,790.14655,790.54944,780.4762
796.99634,791.75824,794.17584,782.49084
805.05493,802.6374,803.0403,797.3993
803.44324,802.6374,805.05493,800.6227
799.011,793.36993,798.20514,794.9817
801.8315,788.1319,795.78754,801.02563
803.8461,792.1612,797.3993,805.8608
816.337,807.8755,804.2491,813.1135
823.5897,813.1135,807.0696,811.9048
813.5165,798.20514,800.2198,805.05493
805.8608,790.54944,794.9817,805.8608
809.89014,795.38464,793.7729,807.47253
815.5311,801.8315,800.6227,813.1135
808.68134,802.6374,804.2491,805.05493
804.65204,799.41394,798.60803,801.8315
802.6374,792.1612,793.7729,799.011
798.20514,790.54944,795.78754,795.38464
802.6374,799.011,799.81683,805.8608
808.68134,799.011,799.81683,800.2198
793.7729,786.9231,794.57874,788.93774
782.8938,781.28204,789.34064,786.9231
792.96704,787.326,790.54944,788.5348
796.99634,794.9817,795.78754,788.93774
798.20514,801.02563,799.41394,785.31134
781.685,785.31134,784.5055,775.2381
786.52014,786.52014,785.31134,780.87915
794.57874,792.1612,793.36993,786.52014
802.23444,801.02563,802.6374,787.72894
801.8315,798.20514,800.2198,790.14655
796.5934,787.326,790.9524,796.5934
792.1612,796.1905,794.9817,779.2674
799.81683,790.9524,795.38464,803.0403
804.2491,796.1905,798.60803,803.8461
806.6667,800.6227,800.2198,802.23444
804.65204,799.41394,800.2198,800.6227
803.44324,788.93774,795.78754,803.8461
799.81683,784.5055,794.57874,800.6227
801.8315,789.34064,799.81683,801.02563
808.2784,801.8315,808.2784,811.0989
807.8755,804.65204,807.47253,811.0989
798.20514,792.96704,797.3993,804.2491
792.5641,789.34064,790.54944,795.38464
797.8022,794.9817,792.1612,799.41394
804.2491,799.011,796.1905,802.6374
786.1172,781.28204,780.07324,788.93774
784.10254,776.8498,780.87915,789.7436
793.36993,784.5055,792.1612,790.9524
796.99634,792.96704,789.34064,790.54944
806.6667,795.38464,797.3993,792.1612
810.696,799.011,798.60803,794.9817
795.38464,790.54944,792.1612,790.9524
784.90845,783.69965,780.4762,780.87915
796.99634,791.3553,784.5055,782.49084
807.47253,798.60803,795.78754,788.93774
802.6374,797.8022,795.78754,780.87915
792.1612,788.5348,788.5348,780.07324
783.69965,779.2674,780.07324,788.1319
787.72894,785.7143,784.90845,789.7436
800.2198,794.17584,797.3993,793.7729
801.8315,793.7729,798.20514,793.36993
800.2198,792.5641,794.9817,796.5934
796.99634,789.34064,794.9817,804.65204
799.41394,794.9817,799.81683,804.2491
805.05493,800.2198,800.6227,801.02563
794.9817,796.1905,792.5641,793.36993
787.72894,790.14655,786.9231,792.96704
794.17584,788.5348,790.14655,804.2491
800.2198,794.17584,794.57874,807.8755
800.6227,791.3553,794.57874,802.23444
799.81683,801.4286,800.6227,809.89014
796.99634,796.1905,799.41394,803.8461
789.7436,789.34064,793.36993,798.20514
783.2967,790.54944,789.34064,793.36993
789.34064,793.36993,791.75824,782.0879
800.6227,804.2491,798.20514,784.5055
796.99634,801.4286,797.8022,787.326
788.1319,789.7436,788.1319,781.685
793.7729,794.9817,787.72894,790.9524
791.75824,790.9524,786.9231,780.4762
792.96704,792.1612,789.7436,779.67035
785.31134,782.0879,783.69965,779.67035
775.2381,773.22345,776.4469,772.8205
791.3553,794.57874,785.7143,788.93774
780.07324,774.43225,777.25275,778.0586
792.1612,786.9231,786.9231,785.7143
792.5641,785.31134,786.52014,781.685
789.7436,775.2381,780.07324,784.10254
787.326,772.4176,776.4469,785.7143
783.69965,773.6264,777.6557,781.28204
792.5641,788.5348,789.34064,789.7436
799.011,793.7729,792.5641,796.99634
786.9231,782.49084,782.0879,784.10254
776.8498,777.6557,781.685,780.4762
775.64105,780.4762,786.9231,788.1319
783.69965,787.72894,789.7436,791.75824
785.31134,790.9524,793.7729,788.5348
774.83514,784.5055,788.5348,780.87915
769.19415,774.83514,778.46155,776.8498
782.0879,784.5055,779.67035,773.6264
785.7143,787.326,782.49084,776.04395
782.49084,785.31134,783.2967,771.2088
770.80585,773.22345,775.64105,773.22345
778.0586,776.8498,777.25275,763.1502
790.9524,791.75824,792.1612,775.2381
798.20514,796.5934,793.36993,783.2967
792.96704,788.93774,784.5055,777.25275
778.86444,778.0586,779.2674,772.01465
780.07324,777.6557,778.46155,765.56775
777.6557,775.2381,778.86444,775.64105
787.326,784.5055,784.90845,782.49084
799.011,794.9817,792.1612,793.7729
801.4286,791.75824,791.75824,794.9817
789.34064,784.10254,784.5055,787.326
792.5641,787.72894,786.52014,792.1612
806.26373,798.20514,794.17584,802.23444
807.8755,799.41394,792.96704,802.6374
790.14655,783.69965,781.28204,788.93774
776.4469,772.4176,772.01465,779.2674
776.4469,775.64105,778.46155,780.87915
779.67035,783.2967,790.54944,786.52014
789.34064,792.96704,796.99634,793.36993
793.7729,791.75824,796.5934,796.1905
785.7143,780.87915,787.326,793.36993
781.685,778.86444,784.10254,789.7436
787.326,784.5055,787.326,785.7143
799.011,793.7729,793.36993,789.34064
794.57874,793.7729,795.38464,788.5348
780.4762,781.685,784.10254,776.8498
778.46155,773.6264,775.64105,775.64105
782.0879,775.64105,780.4762,779.2674
789.34064,785.7143,790.14655,779.2674
788.1319,787.326,788.93774,774.83514
787.326,784.5055,776.04395,777.25275
784.90845,785.7143,800.6227,784.5055
792.96704,778.86444,775.2381,783.69965
791.3553,790.54944,801.8315,782.8938
789.34064,785.7143,794.17584,785.31134
784.10254,771.6117,787.72894,792.5641
784.90845,770.40295,789.7436,794.17584
792.1612,781.28204,797.3993,798.60803
801.02563,790.54944,806.26373,801.02563
800.2198,786.1172,797.8022,799.81683
788.5348,778.0586,791.3553,783.69965
794.57874,776.8498,786.52014,799.41394
793.36993,780.07324,789.34064,801.4286
796.1905,791.3553,795.38464,800.2198
794.9817,794.9817,792.96704,790.9524
789.34064,787.326,791.3553,782.49084
780.07324,776.04395,788.1319,778.86444
780.07324,774.0293,789.7436,784.90845
792.5641,786.1172,796.5934,787.326
796.99634,796.5934,801.02563,783.69965
795.38464,791.75824,798.60803,784.90845
787.72894,782.49084,788.1319,782.49084
790.14655,784.10254,791.75824,786.52014
799.41394,789.34064,796.5934,789.7436
802.23444,793.36993,797.8022,793.36993
803.44324,795.38464,799.81683,801.02563
793.7729,787.326,790.54944,800.2198
788.1319,783.69965,786.1172,796.1905
789.34064,786.9231,795.38464,796.99634
785.31134,790.9524,799.41394,795.78754
780.87915,784.10254,794.57874,787.72894
778.86444,774.83514,790.9524,782.49084
781.28204,783.2967,792.5641,790.9524
789.34064,788.1319,797.8022,794.17584
797.8022,793.36993,805.05493,795.38464
794.9817,790.9524,801.02563,790.14655
782.8938,780.07324,789.34064,782.0879
784.5055,781.685,788.5348,794.57874
790.54944,790.54944,793.36993,794.9817
782.0879,778.86444,787.72894,790.14655
794.17584,797.8022,801.02563,796.5934
788.93774,793.36993,802.6374,792.96704
785.7143,782.49084,792.1612,792.5641
790.14655,784.5055,789.7436,794.17584
801.8315,803.0403,805.4579,796.1905
805.05493,805.8608,808.68134,795.78754
793.36993,791.75824,801.4286,787.326
782.49084,786.1172,794.57874,778.86444
783.69965,790.9524,794.57874,780.87915
788.1319,794.57874,799.81683,780.07324
793.36993,799.81683,805.8608,787.72894
791.3553,790.9524,788.93774,779.67035
792.96704,788.93774,785.31134,780.07324
798.20514,800.6227,803.0403,792.1612
802.23444,799.81683,795.78754,782.8938
788.1319,785.7143,786.52014,778.46155
765.9707,759.12085,759.5238,764.7619
801.4286,794.9817,790.54944,785.7143
762.74725,759.12085,761.9414,762.74725
768.7912,762.3443,770.40295,766.77655
774.43225,767.5824,775.64105,774.83514
765.9707,765.9707,772.8205,772.8205
779.2674,778.0586,778.86444,787.72894
786.52014,782.49084,784.10254,794.17584
787.326,788.5348,790.14655,794.57874
780.07324,785.31134,786.1172,788.5348
769.59705,766.77655,778.0586,775.64105
769.59705,770.0,776.4469,778.0586
764.35895,771.2088,780.4762,777.25275
764.35895,779.2674,784.10254,778.86444
775.2381,783.2967,790.9524,779.2674
775.64105,786.52014,794.57874,775.2381
767.1795,778.86444,786.9231,771.2088
774.0293,779.67035,788.5348,775.64105
783.2967,791.3553,797.3993,778.86444
785.7143,790.54944,792.96704,773.22345
778.86444,781.685,778.46155,764.35895
772.8205,777.6557,774.43225,767.1795
782.49084,784.10254,783.69965,773.6264
794.17584,797.3993,799.011,778.46155
766.77655,772.8205,784.10254,773.6264
792.96704,796.99634,799.41394,774.43225
783.2967,784.90845,791.75824,769.19415
780.07324,778.0586,790.9524,769.59705
786.1172,780.07324,792.1612,777.6557
796.1905,788.5348,798.60803,786.9231
794.9817,791.3553,801.4286,784.5055
782.8938,785.31134,791.75824,782.49084
781.28204,778.0586,788.1319,784.5055
782.49084,776.04395,792.5641,784.10254
786.1172,782.8938,801.02563,792.5641
790.9524,788.5348,805.05493,792.5641
784.5055,779.67035,795.38464,786.1172
781.28204,775.64105,791.75824,793.36993
787.326,785.7143,795.78754,801.02563
790.54944,793.36993,795.38464,796.99634
789.34064,794.9817,796.1905,791.75824
763.5531,774.83514,779.67035,776.4469
779.2674,786.1172,792.1612,785.7143
774.83514,780.07324,785.7143,789.34064
796.1905,792.5641,800.6227,793.36993
791.75824,787.72894,796.5934,791.3553
791.3553,786.52014,795.78754,794.57874
780.07324,776.4469,783.69965,786.1172
786.9231,778.0586,785.7143,790.9524
796.1905,786.1172,793.36993,784.90845
800.2198,797.8022,800.2198,788.93774
805.4579,801.4286,804.65204,789.34064
786.52014,781.28204,785.7143,783.69965
798.60803,796.1905,795.38464,789.34064
806.26373,801.4286,803.0403,792.96704
798.20514,794.57874,790.9524,785.7143
791.3553,792.5641,782.8938,784.90845
788.93774,783.69965,784.5055,786.1172
802.6374,794.9817,790.14655,793.7729
812.71063,796.1905,797.3993,803.0403
821.1722,809.89014,808.2784,813.5165
823.9927,815.12823,813.5165,813.5165
813.91943,805.05493,805.8608,811.9048
807.0696,798.20514,799.41394,810.293
804.65204,795.78754,797.8022,805.05493
810.293,803.8461,804.65204,807.47253
807.0696,805.4579,803.44324,807.47253
790.14655,793.7729,792.1612,799.81683
789.34064,787.72894,792.5641,794.9817
793.7729,790.14655,797.3993,799.81683
796.99634,795.38464,803.44324,801.4286
804.65204,799.81683,808.2784,802.23444
794.57874,788.5348,799.41394,795.38464
778.0586,774.0293,785.31134,781.685
779.67035,778.46155,788.93774,780.4762
793.7729,792.1612,802.23444,788.5348
799.41394,799.41394,802.6374,791.3553
793.36993,792.5641,790.14655,786.9231
794.17584,786.9231,789.7436,788.5348
796.5934,792.96704,796.99634,794.17584
800.6227,798.60803,799.41394,796.99634
811.0989,804.2491,806.6667,801.4286
799.41394,794.9817,796.1905,792.96704
787.72894,784.10254,786.52014,790.54944
796.5934,789.34064,794.17584,797.8022
803.0403,791.75824,800.2198,796.99634
807.0696,798.20514,803.0403,796.5934
806.26373,794.17584,798.60803,796.5934
799.41394,788.5348,796.5934,801.02563
802.6374,794.57874,798.20514,806.6667
815.12823,805.4579,802.23444,804.2491
814.3223,797.8022,796.1905,803.44324
803.44324,803.8461,804.2491,806.6667
794.9817,791.75824,797.3993,801.4286
792.96704,792.5641,796.1905,799.81683
788.93774,794.9817,798.20514,800.2198
796.5934,798.20514,802.23444,794.17584
786.52014,790.54944,790.54944,786.9231
794.17584,798.60803,803.0403,796.5934
789.7436,794.57874,792.1612,783.2967
798.20514,799.011,800.2198,788.5348
805.8608,801.4286,801.4286,788.1319
804.2491,799.011,797.3993,781.685
794.9817,795.38464,791.75824,781.28204
792.5641,793.36993,795.78754,784.90845
791.75824,792.5641,790.54944,784.90845
797.8022,798.60803,802.6374,788.93774
797.8022,796.99634,798.20514,788.1319
791.75824,788.93774,787.72894,781.685
781.685,784.5055,777.6557,783.2967
786.9231,787.326,778.86444,796.1905
804.2491,794.57874,791.3553,807.47253
803.0403,794.17584,792.1612,808.2784
790.54944,782.8938,782.0879,802.6374
782.0879,777.6557,781.28204,803.8461
785.7143,780.07324,788.93774,807.47253
801.4286,790.9524,800.6227,812.71063
802.23444,793.7729,803.0403,813.5165
796.99634,785.7143,794.57874,805.4579
796.5934,780.87915,794.17584,805.05493
793.7729,781.685,794.17584,806.6667
796.99634,790.14655,798.60803,801.8315
804.2491,798.60803,807.0696,802.23444
801.02563,794.17584,802.23444,797.8022
788.5348,783.2967,793.7729,792.5641
803.8461,795.38464,800.6227,792.96704
813.5165,801.4286,804.65204,793.36993
811.0989,796.5934,804.65204,790.14655
795.38464,782.0879,792.1612,774.83514
803.44324,789.7436,793.7729,778.46155
810.696,796.99634,796.5934,780.4762
802.23444,794.57874,794.17584,771.6117
795.38464,791.75824,792.5641,773.22345
793.36993,788.93774,786.52014,780.07324
782.8938,784.10254,780.4762,778.0586
793.36993,786.9231,797.8022,796.1905
785.7143,783.69965,784.5055,779.2674
799.81683,792.1612,795.38464,784.90845
797.3993,792.1612,796.5934,786.1172
796.5934,786.1172,792.5641,793.7729
796.5934,786.9231,794.9817,801.02563
803.8461,795.38464,801.4286,806.6667
813.91943,809.0842,809.0842,814.7253
806.6667,809.89014,805.8608,807.0696
791.3553,791.75824,788.5348,790.9524
789.7436,785.7143,786.52014,793.36993
790.14655,794.57874,790.9524,785.31134
791.75824,791.3553,791.3553,796.5934
790.9524,795.78754,791.3553,780.87915
782.49084,784.90845,784.10254,776.4469
789.7436,786.9231,786.52014,784.10254
795.78754,799.011,795.38464,792.5641
802.6374,803.0403,799.41394,797.3993
783.69965,789.7436,786.9231,774.83514
798.20514,791.3553,792.1612,795.38464
801.8315,793.36993,792.96704,800.6227
792.96704,785.7143,786.1172,794.9817
814.3223,804.2491,804.2491,814.3223
811.9048,804.65204,806.26373,814.3223
809.4872,797.3993,800.2198,809.4872
811.0989,799.41394,799.81683,813.91943
806.26373,801.4286,800.2198,814.3223
808.68134,805.4579,803.8461,812.3077
810.293,803.0403,804.65204,805.05493
805.05493,794.9817,801.8315,802.23444
799.41394,791.3553,797.8022,802.6374
802.23444,787.72894,791.3553,807.47253
808.68134,794.9817,798.20514,817.1429
811.0989,803.0403,806.26373,819.5604
806.26373,798.60803,799.81683,810.293
798.60803,792.1612,794.17584,804.2491
798.20514,792.96704,796.99634,803.8461
801.8315,800.6227,801.02563,801.02563
801.02563,804.65204,801.8315,799.41394
794.9817,794.17584,801.4286,793.36993
787.326,780.07324,790.14655,786.9231
786.52014,782.8938,792.96704,785.31134
802.6374,796.1905,802.23444,795.78754
810.293,803.8461,808.2784,799.41394
797.8022,791.75824,802.23444,789.34064
794.17584,784.5055,794.57874,783.2967
804.2491,783.2967,796.5934,789.34064
811.9048,787.326,803.8461,797.3993
821.5751,791.3553,809.0842,813.5165
819.9634,799.011,805.8608,809.4872
800.6227,799.41394,794.17584,790.9524
797.3993,795.38464,793.7729,793.7729
803.8461,796.5934,795.78754,803.0403
807.0696,804.65204,798.60803,804.65204
811.9048,809.89014,799.81683,807.8755
805.4579,800.6227,789.34064,806.6667
804.2491,799.011,787.326,807.0696
810.293,807.0696,796.1905,813.5165
810.293,809.4872,800.6227,817.5458
808.2784,807.0696,798.60803,815.9341
801.4286,799.41394,792.1612,809.0842
796.5934,789.7436,786.1172,803.44324
798.60803,788.93774,786.1172,802.6374
805.05493,801.02563,794.57874,805.8608
813.91943,807.0696,802.23444,811.50183
810.696,800.6227,799.011,806.26373
803.8461,790.54944,790.9524,800.2198
804.65204,796.99634,797.8022,799.41394
813.1135,807.0696,803.0403,805.4579
816.7399,796.99634,796.99634,802.6374
807.47253,789.34064,789.34064,788.1319
813.91943,796.5934,796.1905,792.96704
802.6374,794.57874,789.7436,797.8022
822.381,803.44324,802.6374,796.99634
812.3077,802.6374,801.4286,790.54944
800.6227,792.1612,792.5641,779.2674
797.3993,781.685,786.9231,777.25275
794.57874,780.07324,789.7436,781.28204
795.38464,784.90845,793.36993,781.685
802.23444,792.1612,796.99634,786.52014
799.81683,788.1319,796.1905,788.1319
791.3553,776.4469,789.34064,787.72894
790.14655,780.4762,786.9231,787.326
794.57874,789.34064,795.78754,792.96704
805.8608,796.5934,803.0403,802.23444
803.8461,791.75824,798.60803,799.41394
796.1905,786.52014,796.5934,794.57874
790.9524,786.1172,792.5641,789.7436
776.4469,772.8205,778.86444,764.35895
780.4762,773.22345,779.67035,772.01465
774.83514,772.4176,774.83514,759.12085
767.98535,763.1502,770.80585,757.1062
762.3443,763.1502,770.0,761.53845
771.2088,777.25275,780.4762,765.16486
768.7912,776.4469,780.07324,760.32965
767.5824,771.2088,772.01465,765.56775
759.92676,765.9707,771.2088,755.4945
759.5238,763.1502,767.98535,757.50916
771.6117,771.2088,770.40295,762.74725
781.685,781.685,774.43225,770.40295
784.5055,783.69965,779.2674,772.4176
779.2674,778.0586,776.04395,768.7912
776.04395,772.01465,772.4176,774.0293
782.0879,776.8498,775.2381,779.67035
793.7729,790.14655,785.31134,784.5055
798.60803,794.17584,792.5641,790.14655
787.326,782.0879,782.8938,785.31134
783.69965,776.04395,778.0586,782.49084
790.14655,786.1172,782.0879,792.96704
794.9817,793.36993,786.52014,796.99634
798.60803,796.5934,792.5641,796.5934
788.5348,790.9524,788.1319,792.1612
778.86444,781.28204,776.4469,783.69965
782.8938,784.90845,775.64105,790.14655
790.9524,795.78754,787.326,797.3993
795.38464,798.20514,792.1612,792.96704
791.3553,782.8938,788.5348,796.5934
775.2381,768.7912,779.2674,796.5934
772.01465,778.86444,776.8498,780.87915
786.52014,796.5934,783.2967,778.46155
799.011,803.0403,788.93774,784.90845
791.75824,792.96704,784.5055,777.6557
779.67035,782.49084,779.67035,774.43225
790.9524,791.3553,785.31134,772.8205
796.5934,800.2198,791.3553,771.2088
786.1172,792.96704,782.8938,769.19415
791.75824,799.81683,788.93774,767.1795
792.5641,804.65204,794.57874,776.04395
795.38464,810.293,799.41394,783.69965
786.9231,802.23444,799.41394,776.04395
788.1319,793.36993,787.72894,770.40295
781.28204,783.69965,781.28204,775.2381
778.86444,794.57874,791.75824,773.22345
778.0586,794.17584,788.93774,778.0586
776.4469,798.60803,792.1612,778.46155
789.34064,811.50183,798.60803,787.72894
797.3993,813.1135,800.6227,794.57874
794.9817,799.011,793.7729,799.41394
793.7729,798.20514,796.1905,796.99634
793.7729,799.011,796.1905,796.99634
792.5641,805.4579,799.011,793.36993
784.5055,799.011,789.7436,784.90845
780.07324,790.9524,784.90845,783.69965
782.8938,788.93774,788.5348,786.9231
791.75824,800.6227,792.5641,793.7729
788.1319,799.41394,793.36993,793.7729
792.1612,803.8461,799.41394,794.9817
790.9524,794.9817,793.7729,791.75824
783.2967,786.9231,780.4762,784.90845
780.87915,788.5348,778.86444,776.4469
790.9524,798.60803,787.72894,784.5055
798.20514,802.23444,790.54944,786.1172
789.34064,790.14655,784.90845,772.8205
790.14655,788.93774,784.5055,776.8498
793.36993,792.5641,784.90845,782.8938
797.8022,795.38464,789.34064,787.72894
803.8461,799.41394,790.14655,787.326
805.8608,796.5934,788.5348,782.8938
797.3993,784.5055,784.5055,788.1319
805.8608,796.99634,801.02563,799.41394
807.0696,799.41394,804.2491,801.4286
799.41394,786.1172,782.49084,780.4762
798.60803,791.3553,797.8022,794.17584
795.38464,787.72894,795.38464,790.54944
794.57874,790.9524,792.5641,792.5641
799.011,797.3993,794.9817,800.2198
803.0403,801.02563,802.23444,805.8608
796.99634,799.41394,799.81683,805.05493
787.326,787.72894,790.54944,800.6227
789.34064,791.3553,795.78754,805.8608
799.81683,799.81683,807.0696,809.0842
810.293,802.6374,810.293,814.7253
811.0989,801.4286,805.8608,813.5165
798.20514,790.9524,795.78754,801.4286
792.1612,787.72894,789.34064,797.3993
798.20514,794.9817,794.17584,795.38464
809.89014,806.6667,803.0403,794.9817
811.0989,807.0696,803.0403,791.3553
797.3993,791.3553,792.96704,778.86444
791.3553,787.326,785.31134,774.83514
794.9817,792.5641,791.3553,782.49084
796.99634,796.1905,798.20514,786.9231
789.34064,791.3553,796.1905,781.685
776.4469,778.0586,778.46155,775.2381
778.46155,783.2967,783.69965,780.4762
788.5348,790.14655,792.1612,786.52014
794.17584,798.20514,794.57874,784.10254
778.86444,778.0586,783.2967,773.22345
787.72894,789.34064,788.5348,782.49084
785.31134,774.43225,782.49084,789.7436
794.17584,780.87915,788.1319,791.3553
787.72894,769.59705,782.0879,789.7436
802.6374,793.7729,795.78754,794.9817
789.7436,782.8938,790.9524,788.5348
777.6557,776.8498,782.49084,784.90845
786.1172,784.10254,789.34064,791.75824
794.9817,789.7436,795.38464,796.1905
803.0403,797.8022,801.8315,795.78754
796.5934,791.75824,798.20514,789.34064
780.07324,776.8498,786.52014,782.49084
783.2967,777.25275,790.14655,791.3553
790.9524,781.685,795.78754,803.0403
797.3993,793.7729,799.81683,803.0403
800.6227,801.02563,799.011,799.011
796.1905,786.52014,786.9231,792.96704
801.8315,782.49084,779.2674,797.8022
808.2784,791.3553,780.87915,798.20514
814.7253,798.20514,788.93774,793.36993
817.1429,799.011,791.3553,792.5641
803.8461,789.7436,783.69965,788.1319
802.23444,790.54944,782.49084,796.1905
812.71063,801.02563,792.1612,808.2784
807.47253,794.57874,792.1612,803.44324
802.6374,790.54944,794.9817,798.20514
796.5934,789.7436,796.1905,801.4286
790.54944,786.1172,794.57874,805.8608
793.36993,787.72894,796.5934,806.6667
799.81683,796.5934,801.02563,808.68134
802.6374,798.20514,806.6667,807.47253
791.75824,784.5055,795.38464,800.2198
790.9524,784.90845,793.36993,801.02563
794.9817,790.54944,798.60803,807.8755
802.23444,796.1905,803.0403,809.89014
804.65204,797.3993,803.8461,805.4579
796.5934,789.7436,794.9817,803.0403
789.34064,781.685,786.52014,801.4286
788.1319,784.5055,790.9524,800.2198
792.96704,795.38464,799.41394,799.41394
802.6374,802.6374,801.8315,803.0403
797.3993,792.1612,792.96704,790.9524
785.7143,781.28204,780.07324,789.7436
790.9524,790.54944,785.7143,788.93774
787.326,781.28204,784.90845,785.31134
798.60803,797.8022,794.9817,786.1172
781.685,781.685,776.8498,770.40295
791.3553,791.3553,786.52014,771.6117
783.2967,781.28204,782.8938,777.6557
799.011,800.2198,795.78754,778.86444
792.5641,792.1612,789.7436,777.25275
790.9524,792.96704,791.3553,777.25275
782.0879,779.2674,779.67035,776.8498
782.0879,780.4762,780.87915,779.2674
790.54944,791.3553,790.9524,780.4762
786.9231,784.90845,785.7143,777.25275
785.31134,776.04395,780.87915,780.07324
782.0879,776.8498,781.685,789.7436
790.14655,787.72894,791.75824,797.3993
799.011,793.36993,796.1905,801.4286
801.4286,793.7729,790.14655,803.8461
797.8022,790.14655,783.69965,800.2198
797.8022,785.31134,786.1172,803.0403
790.54944,794.17584,793.7729,780.07324
801.02563,784.90845,792.5641,803.44324
801.8315,791.75824,795.78754,801.4286
801.8315,795.78754,796.1905,803.44324
799.41394,790.14655,790.9524,801.8315
796.5934,782.0879,787.326,801.4286
803.0403,793.7729,800.6227,811.50183
797.3993,782.0879,791.3553,805.8608
804.2491,792.5641,802.23444,809.89014
798.20514,784.10254,799.011,804.65204
799.41394,788.1319,791.3553,796.5934
795.78754,784.5055,794.9817,799.41394
807.0696,797.3993,799.41394,798.60803
799.81683,796.5934,799.81683,790.54944
786.52014,779.67035,789.7436,779.2674
781.685,775.2381,787.326,778.0586
784.90845,782.0879,792.5641,784.10254
799.41394,795.78754,802.23444,794.57874
803.44324,799.81683,805.8608,798.60803
799.41394,792.96704,802.6374,797.3993
798.60803,789.34064,799.41394,801.8315
799.81683,791.3553,799.011,807.0696
807.47253,801.02563,804.2491,806.26373
807.47253,794.57874,804.2491,799.011
796.1905,788.1319,798.20514,794.9817
797.3993,792.5641,797.8022,801.02563
809.89014,794.57874,805.8608,810.293
816.7399,805.8608,813.5165,811.50183
809.4872,802.6374,806.6667,801.4286
805.8608,794.9817,801.4286,798.20514
805.4579,793.36993,797.3993,797.3993
801.02563,786.9231,791.75824,790.54944
803.8461,794.57874,798.60803,797.3993
805.05493,802.6374,804.2491,799.81683
794.57874,793.36993,796.1905,792.1612
787.326,784.5055,786.9231,786.52014
793.36993,789.7436,792.96704,788.5348
794.57874,792.5641,799.81683,787.72894
790.9524,792.96704,799.81683,778.0586
790.14655,792.1612,798.60803,774.0293
786.1172,786.1172,792.96704,774.0293
782.49084,783.69965,789.34064,775.2381
791.3553,790.54944,791.75824,781.28204
797.3993,799.81683,794.57874,786.1172
793.7729,798.20514,793.36993,785.7143
787.326,788.1319,788.93774,789.7436
786.9231,781.685,787.72894,793.7729
797.8022,785.31134,792.96704,801.4286
809.89014,799.81683,804.65204,815.9341
809.0842,802.6374,804.2491,810.696
799.41394,791.3553,791.3553,799.81683
795.78754,787.72894,789.7436,803.44324
802.6374,793.36993,795.78754,800.6227
809.4872,800.2198,801.02563,795.78754
805.05493,796.5934,796.5934,792.1612
798.20514,786.52014,786.1172,786.1172
797.3993,784.10254,783.69965,792.5641
797.3993,784.90845,787.72894,790.14655
805.05493,796.5934,799.41394,793.7729
806.26373,802.6374,803.8461,791.3553
790.54944,786.1172,791.3553,783.2967
786.52014,779.67035,786.52014,787.326
789.34064,788.1319,790.9524,788.5348
801.02563,801.02563,802.23444,794.57874
791.3553,794.57874,795.38464,789.7436
781.685,787.326,791.75824,786.9231
807.8755,808.2784,807.8755,797.8022
780.87915,790.54944,790.14655,784.90845
787.72894,792.5641,792.1612,784.5055
794.17584,792.96704,798.60803,783.2967
789.34064,786.52014,792.96704,778.0586
787.72894,778.46155,783.69965,778.46155
789.34064,780.07324,785.7143,780.07324
791.3553,785.7143,786.9231,784.10254
795.38464,791.75824,788.5348,786.9231
787.326,784.90845,786.1172,785.7143
783.2967,775.2381,779.2674,786.52014
795.38464,786.9231,788.1319,800.2198
800.2198,795.38464,795.78754,807.47253
800.2198,795.38464,792.5641,798.60803
804.2491,793.36993,786.52014,794.9817
795.78754,785.31134,782.0879,795.78754
793.36993,784.5055,783.69965,798.60803
806.26373,791.75824,792.96704,801.4286
812.71063,803.0403,801.4286,807.0696
813.1135,806.6667,801.8315,809.0842
803.8461,792.5641,792.1612,799.011
798.20514,786.52014,785.7143,794.9817
799.41394,789.7436,789.7436,796.1905
803.8461,792.96704,794.57874,799.41394
794.17584,792.5641,793.7729,792.1612
781.28204,784.5055,782.8938,786.1172
791.3553,784.90845,782.0879,794.9817
805.05493,796.99634,793.7729,801.8315
808.2784,800.2198,798.60803,803.0403
803.8461,802.23444,798.20514,796.5934
792.1612,793.7729,790.9524,788.93774
788.1319,784.90845,784.10254,792.5641
788.93774,792.1612,789.7436,793.36993
802.23444,796.5934,803.0403,802.6374
795.78754,786.52014,796.99634,795.78754
790.54944,784.10254,789.34064,797.3993
797.8022,789.7436,790.9524,798.60803
803.0403,794.57874,794.17584,799.011
807.47253,806.26373,800.2198,805.8608
792.5641,796.5934,796.99634,799.011
807.47253,804.2491,802.6374,806.26373
805.05493,792.1612,797.3993,802.23444
805.8608,792.5641,792.96704,799.011
811.9048,806.26373,800.6227,803.44324
815.5311,813.5165,808.68134,804.65204
802.6374,799.011,798.60803,796.99634
792.1612,787.72894,789.34064,788.5348
795.38464,784.5055,788.5348,787.72894
803.8461,795.38464,795.38464,796.5934
805.05493,807.47253,802.6374,800.6227
796.1905,798.60803,797.3993,792.1612
791.75824,787.72894,788.5348,785.31134
792.5641,784.90845,784.5055,787.72894
797.3993,796.99634,793.7729,792.1612
802.23444,809.89014,806.26373,790.54944
803.8461,804.65204,801.8315,781.685
800.2198,796.5934,793.7729,781.685
801.8315,804.2491,796.1905,793.7729
803.0403,807.0696,799.41394,793.36993
799.011,808.2784,804.65204,797.8022
792.1612,798.20514,797.3993,801.02563
794.9817,793.7729,795.78754,805.4579
799.41394,798.20514,805.8608,812.3077
807.47253,795.38464,808.2784,819.15753
815.9341,792.1612,802.6374,820.3663
796.99634,791.3553,792.5641,805.05493
786.1172,788.93774,791.3553,799.011
799.011,800.2198,795.38464,791.3553
799.011,790.9524,792.96704,807.8755
823.1868,806.6667,798.20514,820.3663
813.5165,799.81683,794.9817,815.5311
