eeg_1,eeg_2,eeg_3,eeg_4
861.4652,795.78754,801.8315,1259.9634
899.34064,806.26373,801.02563,1463.0403
867.50916,806.26373,792.5641,1237.8022
799.011,803.8461,792.5641,728.0952
778.86444,806.26373,803.8461,597.9487
848.5714,805.05493,809.89014,1150.3663
874.35895,802.6374,807.8755,1372.7839
836.8865,801.02563,801.8315,1145.1282
773.6264,794.9817,792.5641,695.05493
760.32965,794.57874,789.34064,545.9707
836.4835,799.011,802.23444,1031.0989
854.61536,807.47253,805.05493,1205.9707
803.0403,808.68134,794.57874,793.36993
872.3443,802.6374,808.2784,1329.2675
769.19415,807.8755,787.326,508.09525
841.31866,811.9048,799.81683,931.5751
898.93774,811.50183,813.91943,1329.2675
880.0,810.696,819.5604,1232.5641
809.4872,803.8461,809.89014,809.89014
759.92676,790.14655,795.38464,483.9194
811.9048,790.9524,805.8608,844.94507
876.77655,805.4579,812.3077,1241.8315
872.3443,806.6667,806.26373,1210.403
823.9927,799.011,798.60803,870.7326
783.69965,802.6374,801.4286,473.84616
832.4542,804.2491,814.7253,755.4945
883.6264,796.99634,817.1429,1234.5787
871.53845,799.011,811.0989,1235.3846
828.8278,800.6227,799.41394,909.41394
776.4469,795.78754,784.5055,480.69598
797.3993,799.41394,789.34064,695.05493
858.24176,800.2198,802.6374,1207.5824
827.2161,790.9524,808.68134,952.1245
867.50916,789.7436,807.8755,1220.0732
764.7619,796.99634,795.78754,533.8828
774.0293,796.5934,793.36993,614.0659
853.4066,800.6227,804.65204,1159.2307
863.47986,798.20514,805.05493,1304.6886
814.7253,791.75824,805.4579,1038.7546
749.85345,788.1319,795.78754,570.54944
748.24176,786.1172,793.7729,567.72894
829.6337,786.1172,805.4579,1132.2344
851.79486,788.1319,809.0842,1304.6886
818.3516,790.54944,804.65204,1076.63
749.85345,791.75824,787.72894,586.26373
840.10986,801.02563,798.20514,1139.8901
761.53845,790.54944,792.1612,670.07324
864.68866,802.23444,806.26373,1366.7399
760.7326,792.1612,799.41394,709.15753
744.61536,791.75824,798.60803,534.68866
811.50183,796.1905,817.5458,1079.8535
813.91943,798.60803,809.0842,1141.0989
838.49817,789.34064,812.3077,1376.8132
809.89014,787.72894,802.23444,1205.1648
772.01465,796.99634,803.44324,813.91943
736.1539,796.5934,803.0403,537.9121
788.1319,796.5934,810.293,1010.54944
830.0366,795.78754,809.4872,1242.6373
783.2967,788.5348,801.4286,879.59705
743.8095,788.5348,799.41394,596.337
790.54944,790.14655,810.293,955.7509
838.9011,790.9524,815.9341,1403.4066
827.619,794.9817,803.44324,1353.4432
788.1319,797.3993,792.1612,1042.7839
747.8388,792.1612,795.38464,752.674
797.8022,793.7729,810.696,1096.3737
843.3333,803.0403,813.91943,1404.2124
870.32965,797.8022,821.978,1587.1428
866.30035,798.20514,821.1722,1614.1392
759.12085,789.7436,799.011,950.10986
823.1868,795.38464,813.1135,1342.1611
791.75824,789.7436,800.2198,1201.1355
847.3626,799.41394,813.1135,1645.1648
861.8681,799.81683,815.5311,1605.6776
750.2564,786.52014,799.41394,1102.4176
767.5824,793.7729,811.9048,1226.5201
808.2784,790.14655,805.05493,1534.762
850.18317,803.44324,824.7985,1609.3041
861.06226,803.0403,811.50183,1638.7179
840.10986,799.011,797.3993,1598.022
791.75824,794.9817,790.54944,1207.5824
789.7436,798.60803,799.41394,1211.6117
846.1539,800.6227,814.3223,1589.1575
853.00366,797.3993,814.3223,1639.1208
828.8278,798.60803,801.4286,1617.3627
777.6557,794.17584,794.57874,1217.2528
776.4469,789.7436,794.9817,1097.1794
848.97437,794.9817,801.8315,1547.2528
872.74725,797.8022,813.91943,1649.1941
852.1978,795.78754,808.2784,1622.1978
794.9817,795.38464,804.2491,1298.2417
769.19415,796.99634,809.0842,1144.7252
846.55676,792.5641,805.8608,1641.5385
845.34796,796.99634,809.4872,1636.3004
791.3553,791.3553,808.2784,1396.1538
818.3516,792.5641,805.4579,1548.0586
824.7985,802.23444,815.12823,1523.8828
849.3773,795.38464,809.89014,1650.0
847.76556,796.1905,804.2491,1633.8828
815.12823,799.011,795.78754,1472.3077
764.7619,794.9817,811.9048,1159.6337
770.40295,797.8022,795.38464,1252.7106
822.381,801.02563,812.3077,1538.7913
863.0769,798.20514,817.9487,1645.5677
851.79486,792.96704,813.5165,1629.4506
815.12823,787.72894,793.7729,1593.9927
772.01465,784.90845,783.2967,1363.9194
808.2784,787.326,799.41394,1527.9121
838.0952,788.5348,805.05493,1650.0
836.4835,794.57874,807.0696,1624.2124
811.50183,795.78754,807.8755,1613.7362
765.16486,794.17584,800.6227,1430.0
791.75824,795.38464,802.23444,1541.6117
832.4542,798.60803,811.0989,1649.597
850.989,803.8461,813.5165,1619.3773
848.1685,810.293,812.3077,1626.63
800.2198,811.0989,806.6667,1502.1245
806.6667,809.0842,805.05493,1554.1025
853.8095,802.6374,814.3223,1641.5385
868.71796,802.23444,810.293,1620.989
862.27106,809.4872,800.6227,1633.4799
817.9487,805.8608,791.75824,1520.2565
830.4396,805.4579,798.20514,1540.0
855.42126,803.8461,809.4872,1637.5092
850.18317,806.26373,807.8755,1624.2124
837.6923,815.5311,799.41394,1629.8535
790.54944,811.50183,788.93774,1549.6703
774.83514,806.26373,789.34064,1574.249
830.0366,802.6374,797.8022,1639.5238
865.09155,803.8461,804.2491,1616.9597
855.82416,802.23444,801.02563,1639.5238
813.5165,796.1905,789.7436,1584.7252
798.60803,805.4579,792.96704,1537.5824
834.4689,812.3077,809.0842,1624.2124
853.8095,805.4579,814.7253,1621.7949
852.1978,796.5934,804.65204,1641.9414
812.3077,786.52014,794.17584,1573.0403
777.25275,784.90845,803.8461,1445.3114
817.9487,791.3553,813.91943,1590.3663
848.1685,792.1612,810.696,1629.8535
851.39197,794.9817,804.2491,1644.359
819.15753,800.6227,801.8315,1532.3444
778.0586,789.34064,792.1612,1296.227
826.8132,781.685,796.99634,1534.359
861.06226,785.31134,802.23444,1643.5531
847.3626,791.75824,798.20514,1639.1208
803.0403,792.96704,794.17584,1514.2124
733.73627,784.5055,789.34064,1145.1282
777.25275,786.1172,794.17584,1392.5275
851.39197,791.75824,807.47253,1644.359
848.97437,787.326,807.8755,1635.0916
827.2161,788.1319,805.05493,1510.586
774.43225,793.36993,800.6227,1096.3737
788.93774,794.9817,797.8022,1239.414
847.76556,794.17584,801.02563,1602.8572
842.52747,796.5934,797.8022,1645.9707
814.7253,796.99634,790.14655,1447.7289
765.16486,789.34064,789.7436,1018.20514
781.685,787.326,802.23444,1145.5311
853.8095,788.93774,814.7253,1579.4872
866.30035,794.57874,814.3223,1635.4945
822.7839,793.36993,801.4286,1381.6483
766.3736,788.1319,789.34064,944.4689
776.4469,792.1612,797.8022,979.12085
846.55676,792.1612,811.0989,1477.5458
880.80585,790.9524,815.5311,1610.1099
839.304,796.99634,809.4872,1324.4323
756.30035,793.7729,794.57874,830.4396
762.74725,795.38464,803.0403,780.4762
848.5714,802.6374,809.4872,1276.0806
857.8388,796.5934,797.3993,1413.8828
819.9634,793.36993,801.8315,1226.5201
773.22345,794.57874,798.60803,790.14655
764.7619,796.1905,791.75824,611.2454
835.2747,796.99634,798.60803,1103.2234
871.13556,798.60803,801.8315,1351.8315
858.24176,802.6374,803.0403,1170.9158
811.9048,804.2491,795.78754,754.2857
788.5348,799.81683,790.9524,497.21613
846.55676,796.99634,801.4286,918.68134
888.46155,802.23444,810.293,1216.4469
871.9414,800.2198,812.71063,1082.2711
816.337,791.75824,796.5934,723.2601
763.95605,790.9524,785.7143,412.1978
825.2015,794.57874,801.02563,794.57874
886.8498,795.38464,806.6667,1158.022
875.56775,792.96704,802.6374,998.86444
836.8865,789.7436,801.02563,669.2674
779.2674,786.1172,795.78754,339.2674
828.8278,793.36993,805.8608,633.8095
886.04395,794.17584,810.696,1060.9158
859.0476,790.54944,805.8608,996.4469
815.9341,794.9817,800.2198,684.57874
766.3736,796.99634,785.7143,291.72162
799.011,801.4286,787.326,499.23077
872.74725,796.5934,796.1905,963.00366
879.59705,792.1612,799.81683,948.9011
820.3663,794.57874,784.10254,668.86444
762.3443,791.3553,775.2381,238.93773
791.75824,793.36993,787.326,384.3956
860.2564,798.20514,796.5934,907.8022
854.61536,796.99634,796.1905,923.5165
807.8755,793.36993,796.99634,691.8315
761.53845,788.93774,790.54944,284.46887
774.0293,791.75824,782.0879,327.98535
853.8095,794.57874,794.57874,869.92676
877.98535,794.57874,801.4286,1000.87915
838.9011,794.17584,793.36993,731.7216
773.6264,784.5055,782.49084,265.93405
773.6264,789.7436,799.011,253.84616
854.61536,798.60803,807.8755,809.4872
868.71796,797.3993,800.6227,995.2381
826.4103,788.93774,799.41394,719.2308
782.49084,787.326,789.34064,310.65933
776.04395,792.5641,785.31134,232.49084
836.4835,792.5641,794.57874,708.3516
877.1795,799.011,800.6227,949.707
855.42126,806.6667,797.8022,811.9048
782.0879,801.4286,788.1319,435.56778
744.21246,801.02563,786.52014,173.26007
817.9487,804.65204,797.8022,665.2381
872.74725,800.2198,805.05493,1017.3993
843.73627,799.41394,801.4286,857.03296
787.326,797.3993,790.54944,469.011
754.2857,796.1905,786.52014,174.06593
810.293,801.02563,796.1905,575.38464
860.2564,801.4286,798.60803,1002.49084
844.1392,801.02563,795.38464,953.73627
808.68134,805.4579,790.54944,578.20514
755.4945,802.6374,783.2967,217.98535
784.10254,793.7729,793.36993,523.4066
849.3773,797.8022,799.41394,988.7912
846.1539,801.02563,796.99634,942.4542
809.89014,796.5934,792.96704,621.7216
765.56775,792.96704,776.8498,265.1282
798.20514,796.1905,784.10254,471.8315
871.13556,806.6667,802.6374,953.3333
875.9707,807.8755,803.0403,1009.34064
821.5751,796.99634,792.96704,703.91943
748.6447,791.75824,780.07324,278.82785
786.1172,801.8315,789.34064,426.7033
867.9121,807.8755,807.47253,959.3773
875.9707,796.5934,796.1905,1043.1868
839.707,793.36993,778.0586,757.1062
774.83514,794.57874,771.2088,346.92307
776.4469,790.54944,774.0293,386.41025
857.03296,796.5934,788.5348,959.7802
877.5824,792.96704,791.75824,1121.3553
828.4249,782.0879,788.5348,848.5714
756.30035,783.2967,784.5055,414.6154
760.7326,794.17584,785.7143,392.85715
836.8865,799.011,793.36993,940.84247
859.45056,805.05493,799.41394,1135.4579
830.0366,797.8022,790.54944,918.68134
773.6264,782.0879,772.8205,462.56412
774.0293,788.5348,782.0879,350.9524
856.2271,799.011,798.20514,917.0696
886.04395,798.20514,805.4579,1179.3773
843.3333,792.96704,797.3993,997.25275
781.28204,789.7436,774.43225,597.5458
748.6447,788.5348,775.2381,355.78754
822.381,796.1905,801.02563,838.0952
876.3736,795.78754,800.6227,1182.1978
852.1978,790.54944,780.07324,1041.978
811.0989,800.2198,784.10254,701.50183
771.2088,803.44324,784.90845,425.09158
821.1722,799.41394,792.5641,801.8315
878.3883,790.9524,802.6374,1187.4359
857.8388,785.7143,797.3993,1115.3114
812.71063,784.90845,785.7143,761.9414
769.59705,780.87915,773.6264,401.72162
871.13556,793.7729,798.20514,1191.0623
810.293,785.31134,785.7143,730.10986
871.13556,795.38464,794.57874,1139.0842
828.4249,796.99634,789.34064,802.6374
780.07324,797.3993,791.3553,434.7619
816.7399,798.20514,798.20514,664.0293
885.64105,798.60803,801.02563,1133.4432
898.93774,798.60803,806.26373,1158.4249
849.7802,800.2198,796.1905,834.0659
784.10254,792.96704,783.69965,413.4066
805.4579,791.3553,794.17584,576.1905
869.92676,796.5934,801.8315,1131.0256
869.12085,795.78754,798.20514,1196.7032
821.5751,788.93774,795.78754,869.92676
769.59705,788.5348,799.011,461.35532
779.2674,793.36993,794.17584,568.5348
841.31866,798.60803,792.1612,1098.3883
855.42126,798.20514,793.7729,1209.597
828.022,790.54944,795.38464,956.9597
764.7619,786.1172,792.96704,514.1392
761.13556,792.1612,793.7729,454.10257
843.73627,803.0403,799.41394,983.95605
840.10986,801.4286,802.23444,1047.619
880.80585,806.6667,803.0403,1214.0293
769.19415,789.34064,792.1612,568.5348
750.2564,786.1172,796.1905,422.27106
816.7399,790.54944,812.3077,973.0769
836.4835,794.9817,805.8608,1071.392
766.77655,791.75824,789.34064,616.8865
784.5055,789.7436,801.8315,842.52747
830.4396,784.90845,807.47253,1193.8828
813.91943,783.2967,802.23444,1091.1355
757.50916,784.10254,794.17584,701.50183
862.674,794.17584,812.71063,1263.1868
718.022,794.17584,793.7729,440.80585
730.5128,790.9524,783.69965,400.1099
774.83514,797.8022,792.5641,835.6777
819.15753,793.7729,788.5348,1198.7179
796.5934,790.14655,789.7436,1103.2234
747.4359,783.69965,786.52014,714.7985
715.2015,782.49084,785.31134,371.50183
771.6117,788.1319,798.20514,757.1062
836.8865,792.1612,805.8608,1211.2087
818.7546,788.5348,801.4286,1130.6227
768.7912,789.34064,796.99634,806.6667
722.8571,790.14655,793.7729,437.58243
773.22345,790.9524,807.0696,670.4762
851.39197,794.57874,819.9634,1149.1575
855.0183,795.78754,811.0989,1175.751
821.5751,801.8315,796.99634,881.2088
747.8388,801.8315,786.9231,446.84982
772.4176,804.65204,794.17584,591.0989
846.1539,801.8315,807.0696,1114.5055
853.4066,794.9817,810.293,1185.4213
821.1722,794.9817,802.23444,888.0586
760.7326,789.7436,788.1319,440.40292
765.9707,791.75824,790.9524,511.3187
836.4835,798.20514,798.20514,1063.3334
860.65936,807.47253,805.05493,1192.2711
838.9011,811.0989,806.6667,916.6667
777.6557,795.78754,794.57874,501.24542
761.9414,786.52014,799.41394,483.9194
850.989,797.8022,815.9341,1009.34064
886.8498,796.5934,805.8608,1183.0037
830.0366,792.96704,787.72894,991.2088
770.0,796.1905,784.5055,555.2381
769.59705,797.3993,796.1905,415.0183
842.52747,792.96704,807.8755,949.707
855.0183,791.75824,804.65204,1188.6447
824.7985,801.4286,799.81683,1009.34064
790.9524,803.8461,795.78754,614.4689
758.315,800.2198,790.14655,384.79852
815.5311,801.4286,800.2198,894.90845
775.64105,790.54944,798.60803,672.0879
747.03296,788.5348,788.93774,403.73627
869.5238,807.8755,809.0842,1199.9268
836.08057,800.2198,796.99634,1113.2968
785.31134,795.38464,790.9524,745.42126
748.24176,788.1319,790.9524,367.87546
795.78754,789.7436,801.02563,716.8132
869.5238,796.5934,802.23444,1182.6007
809.89014,799.41394,799.41394,801.8315
816.7399,788.93774,807.8755,1023.8461
852.1978,796.1905,809.4872,1216.8499
857.8388,794.57874,784.5055,1117.7289
762.74725,788.1319,778.86444,403.73627
806.26373,790.9524,777.6557,803.8461
792.96704,786.52014,789.7436,639.0476
863.8828,788.93774,801.8315,1156.8132
821.5751,792.1612,796.99634,838.0952
751.8681,788.93774,786.52014,430.32968
847.3626,786.52014,801.8315,1135.4579
768.3883,788.5348,795.38464,570.9524
847.76556,792.1612,813.1135,1094.762
874.7619,788.5348,812.71063,1157.619
841.31866,786.9231,810.696,895.7143
761.9414,790.14655,807.0696,484.32236
757.50916,794.9817,801.4286,514.94507
846.1539,799.011,802.23444,1063.3334
853.8095,795.78754,799.41394,1202.3444
817.9487,787.326,798.60803,946.8865
778.0586,785.31134,801.8315,491.17215
770.80585,786.1172,809.89014,427.50916
840.9158,792.5641,810.696,964.61536
866.7033,801.8315,801.02563,1184.6154
840.10986,804.65204,801.8315,981.9414
772.4176,796.5934,788.1319,529.45056
757.50916,793.7729,791.3553,379.1575
844.94507,796.1905,811.50183,894.90845
879.59705,791.3553,811.50183,1212.0146
848.97437,790.9524,801.8315,1002.49084
792.5641,793.7729,783.2967,578.20514
768.3883,792.5641,785.31134,388.4249
824.3956,791.3553,807.0696,831.6484
870.7326,786.52014,819.15753,1178.1685
848.1685,778.46155,820.3663,1042.381
797.3993,775.64105,802.23444,653.5531
779.67035,789.7436,796.1905,355.78754
844.1392,803.0403,806.26373,777.6557
898.1319,805.8608,810.293,1170.5128
877.98535,799.81683,807.47253,1036.7399
821.5751,790.9524,799.41394,668.0586
780.87915,783.69965,794.57874,362.63736
832.0513,787.326,808.2784,716.8132
898.93774,794.57874,821.5751,1141.9048
884.0293,796.1905,811.0989,1093.956
834.0659,798.60803,792.1612,730.9158
785.31134,795.38464,782.49084,337.25275
817.5458,787.72894,795.38464,631.79486
892.49084,785.7143,803.8461,1132.6373
888.86444,794.17584,805.8608,1119.3407
842.52747,797.3993,798.20514,808.2784
790.14655,794.9817,785.31134,389.6337
815.5311,799.81683,794.9817,572.5641
887.25275,797.8022,811.9048,1077.8389
884.43225,786.1172,809.89014,1116.1172
826.8132,779.2674,799.41394,827.619
766.3736,788.5348,793.36993,397.69232
795.38464,807.47253,792.1612,498.02197
869.5238,814.3223,799.81683,1033.9194
867.1062,801.8315,794.17584,1132.6373
826.4103,790.9524,788.5348,893.2967
767.5824,781.28204,786.52014,420.2564
761.9414,780.4762,794.57874,385.6044
832.8571,787.72894,809.89014,934.7985
859.0476,792.1612,806.26373,1091.5385
832.8571,793.7729,796.5934,893.2967
770.80585,791.75824,788.93774,431.9414
745.42126,789.34064,796.5934,288.9011
832.8571,786.9231,818.3516,875.56775
873.1502,785.7143,817.9487,1120.9524
838.49817,789.7436,815.12823,897.72894
784.5055,794.17584,790.9524,458.5348
749.85345,794.17584,772.4176,239.34065
817.1429,786.52014,786.52014,761.9414
861.8681,779.2674,796.99634,1110.0732
839.304,775.64105,800.2198,943.663
796.99634,778.86444,792.1612,510.91574
768.7912,792.5641,789.34064,260.29303
817.9487,796.5934,797.3993,703.91943
879.19415,799.011,799.81683,1057.6923
859.45056,799.81683,799.41394,929.5604
796.1905,788.93774,793.7729,608.4249
749.45056,781.28204,792.5641,253.0403
796.5934,784.5055,806.26373,564.10254
860.2564,790.9524,812.71063,1028.2784
854.61536,795.78754,802.23444,1005.7143
815.5311,800.6227,791.3553,675.31134
786.9231,791.75824,800.2198,496.8132
760.32965,798.20514,790.54944,250.21979
844.5421,790.54944,812.3077,987.1795
848.97437,790.54944,809.0842,998.46155
824.7985,790.9524,795.38464,682.1612
776.04395,794.9817,792.96704,277.21613
791.3553,801.02563,801.8315,458.93774
851.39197,797.3993,806.26373,931.5751
852.1978,788.5348,810.293,1010.54944
809.4872,786.1172,807.8755,779.67035
755.09155,784.5055,794.9817,315.89743
775.64105,797.3993,804.2491,395.27472
853.8095,810.293,814.7253,961.39197
857.8388,812.3077,805.05493,1071.7949
811.0989,811.50183,792.1612,789.34064
744.61536,794.57874,787.326,291.72162
752.27106,789.7436,800.2198,321.9414
840.5128,802.23444,816.7399,923.5165
864.2857,801.4286,815.12823,1063.3334
845.34796,800.2198,807.8755,857.03296
791.3553,803.44324,798.20514,401.72162
758.71796,800.6227,787.326,262.71063
821.978,794.17584,802.23444,822.7839
855.82416,789.7436,819.9634,1070.586
811.9048,782.8938,806.6667,859.45056
756.7033,786.9231,791.3553,406.15384
752.674,796.1905,788.93774,220.80586
814.7253,800.6227,791.3553,748.6447
848.5714,804.2491,799.81683,1084.2858
823.9927,798.20514,803.8461,891.28204
763.95605,785.7143,792.96704,475.4579
730.9158,787.72894,796.99634,223.62637
801.02563,798.60803,810.293,645.4945
857.8388,794.57874,801.02563,1075.4213
845.7509,794.9817,792.96704,971.8681
792.1612,802.23444,792.5641,571.75824
742.1978,794.9817,792.96704,209.5238
795.38464,791.75824,805.4579,574.17584
864.2857,804.65204,805.4579,1000.87915
869.12085,804.2491,817.5458,1072.1978
821.1722,800.2198,791.3553,628.97437
773.6264,803.0403,792.96704,217.98535
810.696,801.02563,796.5934,475.4579
867.1062,798.20514,806.6667,1012.1612
842.52747,784.90845,803.8461,1036.7399
743.4066,783.69965,790.54944,266.73993
775.64105,794.9817,792.96704,433.15018
788.93774,777.25275,796.99634,706.337
849.3773,803.44324,801.4286,944.87177
853.00366,804.2491,799.011,1002.8938
821.978,801.4286,800.2198,750.65936
761.53845,789.34064,806.6667,360.2198
838.9011,793.36993,814.3223,915.8608
847.76556,790.14655,806.6667,1021.02563
759.92676,793.36993,803.44324,286.88644
807.0696,790.9524,800.6227,778.0586
757.1062,797.8022,803.0403,318.71796
754.68866,794.57874,796.99634,309.0476
835.2747,794.9817,801.8315,864.68866
874.35895,799.81683,809.0842,1035.1282
825.6044,794.9817,797.3993,785.7143
771.2088,798.20514,783.2967,354.57877
767.5824,806.26373,786.1172,264.72528
865.89746,794.57874,800.2198,1016.1905
835.2747,801.4286,797.8022,782.49084
824.7985,792.1612,799.011,811.50183
770.80585,789.7436,790.9524,400.91574
745.42126,783.2967,788.5348,169.6337
803.44324,789.7436,798.60803,662.4176
858.24176,804.65204,799.011,1016.5934
826.8132,801.8315,793.7729,850.989
768.7912,794.9817,790.9524,456.11722
745.0183,794.17584,790.54944,163.58974
809.0842,794.9817,811.9048,616.4835
860.65936,791.3553,813.91943,1008.5348
840.10986,791.75824,801.8315,877.1795
788.1319,797.3993,794.57874,504.8718
740.989,801.02563,789.7436,163.99268
786.52014,802.6374,800.2198,525.42126
857.8388,799.011,813.91943,979.5238
848.5714,794.9817,821.1722,940.4396
791.3553,794.9817,809.4872,601.1722
743.00366,787.326,789.7436,198.64468
775.2381,793.7729,795.38464,444.83517
840.10986,802.23444,810.293,925.9341
846.9597,801.8315,809.89014,929.9634
753.8828,794.17584,800.2198,261.0989
819.5604,803.8461,806.6667,675.7143
775.64105,793.36993,813.1135,423.88278
848.1685,796.99634,816.7399,952.1245
851.39197,797.3993,794.57874,1003.2967
812.3077,795.78754,788.1319,711.978
730.5128,792.96704,785.31134,249.01099
745.82416,797.8022,793.36993,352.56412
850.989,794.9817,813.5165,1007.326
840.5128,796.5934,811.9048,896.52014
802.23444,796.5934,797.8022,766.3736
761.9414,801.4286,788.1319,313.88278
767.98535,802.6374,796.99634,330.80585
828.4249,800.6227,802.23444,873.95605
821.978,794.17584,795.78754,792.1612
756.30035,784.5055,788.93774,357.8022
748.6447,787.326,800.2198,267.14285
820.3663,791.75824,807.47253,797.8022
851.39197,790.14655,800.6227,1065.751
858.6447,801.4286,801.8315,1033.1135
815.5311,786.1172,794.9817,846.9597
753.47986,786.52014,790.14655,394.46887
739.3773,784.90845,790.9524,216.77655
829.6337,789.34064,803.44324,740.989
869.5238,798.60803,800.2198,1074.6154
776.8498,796.99634,788.93774,460.1465
831.2454,794.57874,786.52014,890.4762
753.0769,809.0842,786.52014,180.91576
815.5311,809.0842,794.57874,637.4359
871.9414,803.44324,809.0842,1058.4982
853.4066,798.20514,808.2784,960.989
793.7729,791.75824,789.7436,564.90845
754.2857,795.38464,777.6557,209.12088
806.26373,806.6667,794.17584,577.3993
874.35895,807.47253,805.8608,1052.0513
848.97437,802.23444,802.6374,970.65936
792.1612,797.3993,798.60803,627.3626
761.53845,792.96704,799.81683,274.79852
796.5934,796.5934,807.0696,540.32965
848.97437,803.0403,805.05493,1029.4872
847.3626,799.41394,795.78754,1013.7729
794.57874,791.75824,785.7143,671.28204
741.39197,786.52014,793.7729,251.42857
792.1612,794.17584,810.696,453.2967
859.85345,799.41394,811.0989,1007.72894
847.76556,799.41394,801.8315,1043.9927
805.05493,799.41394,794.9817,752.27106
742.1978,796.99634,790.14655,294.94507
770.80585,800.6227,797.8022,406.55676
855.42126,802.23444,815.5311,994.0293
842.52747,790.54944,811.9048,1071.7949
799.81683,783.2967,800.6227,801.4286
752.674,790.54944,800.2198,360.6227
755.89746,800.2198,801.4286,369.48718
822.7839,800.6227,801.02563,886.4469
817.1429,791.3553,803.44324,864.2857
845.34796,797.8022,807.47253,1050.4396
760.32965,783.2967,793.36993,410.989
760.7326,789.7436,801.4286,329.19415
836.4835,803.44324,815.9341,876.3736
848.97437,805.05493,820.7692,1092.7472
813.5165,800.2198,803.8461,888.86444
762.3443,798.60803,785.7143,450.07327
749.85345,799.81683,801.4286,289.70697
833.2601,804.2491,816.7399,810.696
867.50916,794.9817,814.3223,1086.7032
827.619,786.1172,815.9341,909.81683
780.87915,789.34064,801.02563,527.4359
760.32965,796.99634,786.52014,260.69598
818.3516,801.8315,800.6227,706.337
861.8681,799.81683,808.68134,1075.4213
842.1245,794.17584,804.2491,966.63007
802.6374,787.326,799.41394,591.50183
763.1502,778.46155,796.1905,231.68498
811.0989,784.10254,807.0696,593.5165
869.5238,803.0403,811.0989,1063.7362
844.1392,801.8315,791.3553,1018.60803
792.96704,788.5348,776.04395,636.2271
734.5421,783.2967,774.83514,250.21979
778.0586,780.4762,796.1905,540.7326
859.45056,786.1172,813.91943,1055.2748
857.03296,795.78754,805.8608,1060.9158
797.3993,796.99634,784.90845,698.68134
724.87177,794.9817,774.83514,254.65201
759.12085,796.5934,795.78754,469.011
830.0366,794.57874,805.8608,1005.7143
828.022,789.7436,805.8608,1056.8865
806.6667,791.75824,810.293,782.8938
750.2564,789.7436,792.5641,325.56778
757.1062,785.7143,791.3553,428.71796
837.28937,794.9817,811.0989,978.315
841.31866,796.99634,807.0696,1054.8718
804.2491,788.93774,796.1905,784.10254
755.09155,782.8938,793.36993,353.36996
758.315,780.4762,799.011,368.6813
819.5604,802.23444,806.26373,870.32965
754.68866,794.57874,793.36993,400.51282
853.8095,788.1319,811.9048,950.9158
872.3443,802.23444,817.9487,1143.9194
751.4652,792.96704,799.81683,345.7143
822.381,786.1172,811.0989,831.6484
846.9597,773.6264,810.696,1059.3041
811.9048,776.4469,805.4579,912.6374
778.86444,790.9524,795.78754,483.9194
762.74725,794.9817,792.96704,295.348
823.1868,803.8461,805.8608,800.2198
865.09155,801.8315,813.5165,1076.227
751.4652,793.7729,802.23444,264.32236
813.91943,799.41394,814.3223,716.4103
875.56775,809.0842,814.3223,1075.0183
832.4542,794.9817,813.5165,923.91943
853.8095,805.4579,807.8755,974.2857
783.2967,794.9817,803.44324,528.6447
805.05493,801.4286,803.44324,610.4396
757.1062,791.75824,804.65204,275.6044
790.54944,778.86444,813.1135,653.95605
847.3626,779.2674,808.68134,1068.1685
848.5714,787.326,802.23444,1005.31134
790.9524,788.93774,789.34064,664.43225
806.26373,805.05493,808.2784,582.23444
866.30035,804.65204,811.9048,1050.8425
848.5714,796.5934,816.7399,1026.2638
808.2784,796.99634,810.696,732.52747
761.53845,791.75824,796.5934,309.8535
741.39197,792.1612,790.54944,270.76923
784.5055,792.5641,802.23444,498.02197
859.0476,802.6374,810.696,1039.9634
855.82416,806.6667,808.68134,1086.7032
794.57874,799.011,794.9817,734.1392
752.674,797.8022,790.54944,242.96703
784.5055,797.8022,803.44324,458.13187
850.989,799.41394,809.0842,1014.57874
857.03296,803.0403,813.1135,1084.6886
818.7546,807.0696,805.05493,835.6777
756.30035,805.8608,785.7143,366.66666
753.0769,802.23444,794.57874,380.76923
819.15753,801.02563,811.9048,930.3663
847.3626,794.9817,810.293,1106.044
819.5604,794.57874,803.44324,873.5531
753.47986,794.17584,790.9524,413.00366
733.73627,796.99634,789.7436,317.10623
802.23444,802.23444,805.4579,844.94507
843.73627,800.2198,807.0696,1113.6996
806.26373,794.57874,792.5641,921.0989
751.8681,788.93774,788.93774,455.7143
743.00366,792.1612,796.99634,281.24542
863.0769,798.20514,795.78754,1115.7142
823.9927,796.1905,792.1612,969.45056
822.381,794.9817,794.9817,800.2198
762.3443,792.96704,784.10254,507.28937
731.7216,792.1612,789.34064,249.81685
806.6667,791.3553,811.50183,739.7802
868.315,792.96704,811.0989,1102.8206
847.3626,798.20514,799.41394,990.40295
799.011,809.0842,796.1905,640.65936
758.315,807.8755,795.38464,315.89743
798.20514,801.4286,807.47253,671.28204
847.76556,802.23444,819.5604,1087.5092
834.87177,796.5934,813.5165,1019.81683
790.9524,791.75824,799.81683,650.7326
744.61536,791.3553,796.5934,300.18314
795.78754,795.78754,807.8755,631.79486
861.4652,798.60803,814.3223,1093.1501
844.5421,798.20514,815.5311,1049.2307
805.4579,801.4286,815.5311,734.1392
745.42126,793.36993,803.0403,313.88278
780.4762,792.5641,806.6667,527.4359
818.3516,802.6374,801.4286,816.337
855.0183,797.3993,813.5165,1042.381
853.4066,798.20514,808.2784,1091.1355
757.1062,803.0403,789.34064,335.64102
844.1392,808.68134,807.47253,1014.9817
763.5531,801.8315,790.9524,436.77655
813.91943,795.38464,805.05493,834.0659
750.2564,794.57874,792.1612,346.11722
783.69965,799.81683,808.68134,411.39194
865.4945,807.0696,814.7253,1139.8901
872.74725,809.0842,824.3956,960.18317
869.5238,809.0842,814.7253,1094.359
831.2454,802.6374,805.8608,896.52014
773.6264,799.81683,800.6227,444.43222
768.7912,797.3993,800.2198,367.87546
849.7802,803.44324,807.8755,935.2015
882.8205,808.68134,813.1135,1154.7986
853.4066,807.47253,817.1429,923.91943
787.326,796.99634,808.2784,480.69598
767.98535,792.5641,803.0403,292.9304
832.4542,798.20514,816.7399,804.2491
861.06226,790.9524,822.381,1131.4286
824.3956,789.7436,813.1135,984.35895
776.04395,798.20514,795.78754,566.52014
748.6447,803.8461,799.81683,312.27106
847.3626,797.8022,816.337,1090.3297
826.8132,789.7436,816.7399,943.2601
801.8315,794.17584,817.5458,603.1868
755.4945,794.17584,810.696,296.15384
796.5934,793.36993,821.1722,721.6484
855.42126,800.2198,832.8571,1115.3114
826.8132,798.20514,823.1868,1024.652
811.50183,807.0696,816.7399,782.49084
779.67035,789.7436,807.8755,694.2491
749.0476,787.326,800.2198,292.52747
788.5348,787.326,820.7692,574.57874
855.82416,785.31134,824.7985,1079.4506
856.63007,790.54944,813.1135,1099.597
807.0696,792.1612,808.68134,764.7619
747.4359,789.7436,801.8315,306.2271
781.685,797.8022,811.0989,525.82416
848.97437,798.20514,821.5751,1050.8425
846.9597,792.1612,817.5458,1069.7803
813.91943,791.75824,807.47253,761.53845
772.01465,793.7729,797.8022,327.58243
780.87915,790.54944,802.23444,471.8315
851.79486,792.5641,811.9048,1015.38464
867.9121,796.1905,812.71063,1088.3151
763.5531,791.3553,792.96704,376.73993
760.32965,796.5934,805.4579,388.02197
830.84247,800.6227,823.9927,998.46155
818.7546,792.1612,807.0696,833.2601
844.94507,799.011,823.1868,1147.5458
803.0403,796.1905,816.7399,876.77655
743.4066,793.36993,803.0403,417.83884
732.9304,787.72894,807.8755,341.68497
823.1868,788.93774,816.7399,880.80585
864.2857,790.9524,810.293,1135.4579
819.15753,792.96704,799.011,936.8132
762.74725,792.5641,789.7436,464.57877
743.4066,791.75824,796.99634,296.95972
818.7546,800.6227,819.5604,834.0659
860.2564,795.38464,821.5751,1118.1318
826.8132,787.72894,807.8755,969.45056
772.8205,788.5348,793.7729,542.74725
749.85345,790.14655,790.9524,301.79486
814.7253,798.60803,810.696,770.0
850.58606,803.44324,816.337,1116.5201
820.7692,799.81683,812.71063,990.40295
776.04395,794.17584,807.8755,603.5897
747.03296,791.3553,803.0403,315.09158
805.8608,796.5934,818.7546,720.84247
859.0476,800.6227,819.9634,1144.3224
853.4066,799.011,806.6667,1037.9487
797.3993,797.8022,801.02563,668.46155
732.1245,796.5934,798.60803,311.06226
784.90845,798.60803,807.8755,645.09155
863.8828,798.60803,817.9487,1095.9707
861.06226,799.81683,813.91943,1027.8755
805.4579,797.3993,799.41394,718.022
757.50916,796.1905,790.9524,348.13187
790.54944,801.02563,803.8461,605.6044
844.5421,801.8315,823.1868,1094.762
836.4835,796.99634,818.3516,1075.8242
806.26373,793.7729,805.8608,743.00366
760.7326,792.96704,796.99634,308.24176
774.83514,796.99634,800.2198,489.1575
850.989,802.23444,809.0842,1057.6923
861.06226,805.8608,812.71063,1119.3407
828.022,807.47253,811.0989,857.03296
764.35895,800.6227,793.7729,392.05127
755.89746,792.96704,794.57874,421.06226
844.94507,803.44324,810.293,1002.49084
867.50916,805.8608,814.3223,1132.2344
824.3956,802.6374,803.8461,868.71796
778.46155,806.6667,792.96704,441.2088
767.1795,805.05493,796.99634,358.60806
840.5128,803.8461,810.293,904.57874
882.4176,801.8315,813.5165,1156.8132
838.9011,793.7729,803.8461,911.4286
778.86444,796.5934,796.1905,483.51648
776.4469,800.6227,803.8461,357.8022
834.4689,801.4286,820.3663,821.1722
842.9304,799.81683,814.7253,1112.0879
821.978,799.41394,801.02563,956.1539
776.4469,799.81683,801.02563,525.0183
747.03296,794.17584,807.47253,292.9304
823.5897,796.5934,813.91943,776.04395
861.4652,802.6374,819.5604,1132.6373
832.4542,800.6227,818.7546,1007.326
778.46155,796.1905,807.47253,613.663
725.6777,795.38464,803.0403,271.97803
779.2674,798.20514,817.1429,703.5165
848.97437,792.5641,828.4249,1136.2638
849.7802,791.3553,821.978,1063.3334
796.5934,796.5934,810.293,702.3077
730.9158,796.5934,799.81683,306.63004
766.77655,796.1905,808.2784,624.94507
823.1868,791.75824,816.337,1083.0769
820.3663,789.7436,809.0842,1064.9451
786.1172,788.93774,801.8315,720.4396
775.2381,793.7729,805.05493,555.2381
841.31866,794.9817,809.4872,1058.9011
838.0952,796.1905,805.4579,1066.9597
786.9231,797.3993,793.36993,749.45056
728.9011,791.3553,789.34064,309.45056
764.7619,794.9817,801.02563,462.16116
743.00366,790.14655,803.0403,300.18314
825.2015,801.4286,812.71063,1021.8315
828.022,798.60803,811.0989,1116.9231
812.71063,791.3553,799.81683,862.27106
750.2564,790.14655,794.9817,392.45422
751.8681,798.60803,803.0403,427.91208
823.1868,806.26373,809.4872,975.89746
841.31866,800.6227,805.8608,1119.3407
816.337,795.78754,805.8608,868.315
760.7326,800.6227,804.2491,397.28937
751.06226,802.23444,808.2784,384.79852
815.12823,799.41394,816.7399,942.8571
831.6484,798.20514,805.8608,1129.414
796.1905,799.41394,796.99634,922.3077
742.1978,799.41394,789.7436,478.6813
732.52747,791.75824,793.36993,306.2271
805.05493,790.14655,809.4872,814.3223
855.82416,801.4286,821.5751,1149.9634
824.7985,799.011,809.4872,996.04395
762.74725,795.38464,792.1612,527.03296
813.5165,804.2491,809.4872,788.93774
852.1978,800.6227,811.0989,1112.8938
815.9341,796.1905,804.65204,960.18317
739.3773,798.60803,796.5934,290.91574
766.77655,790.54944,801.8315,569.34064
720.4396,786.9231,797.3993,278.4249
784.10254,800.2198,805.4579,705.9341
848.1685,804.2491,813.5165,1140.2931
844.1392,806.6667,811.0989,1030.6959
805.8608,808.68134,806.6667,593.5165
753.0769,801.8315,799.011,277.21613
792.5641,803.0403,804.65204,646.30035
844.94507,806.26373,817.5458,1118.5348
824.7985,804.65204,809.89014,1084.6886
777.6557,794.9817,792.96704,718.4249
724.0659,786.9231,785.31134,296.55676
766.3736,792.1612,798.20514,548.3883
844.5421,796.1905,814.7253,1065.348
834.0659,793.7729,811.50183,1067.3627
787.326,790.9524,794.57874,760.32965
730.5128,795.78754,784.5055,319.12088
841.31866,799.011,811.9048,1032.7106
846.55676,792.5641,809.89014,1118.1318
790.9524,786.9231,794.17584,842.1245
742.6007,786.1172,780.4762,338.86447
760.32965,781.28204,784.90845,388.82785
824.7985,786.52014,801.8315,985.9707
755.4945,799.41394,794.9817,478.27838
850.18317,789.7436,805.4579,1125.7876
835.6777,789.34064,800.2198,856.2271
758.315,784.90845,793.36993,403.73627
740.18317,785.7143,797.3993,362.63736
828.022,796.1905,802.23444,920.696
846.1539,794.9817,802.23444,1137.0696
799.41394,785.31134,797.8022,892.49084
745.42126,780.87915,782.49084,454.10257
738.1685,788.93774,792.1612,336.04395
838.0952,798.60803,823.9927,865.09155
872.74725,794.57874,819.5604,1131.8315
826.0073,783.69965,795.78754,964.61536
764.35895,783.2967,783.69965,532.27106
735.7509,788.93774,782.8938,278.82785
813.91943,795.38464,803.0403,726.8865
870.32965,797.8022,811.9048,1112.8938
852.1978,801.02563,807.8755,1020.2198
794.9817,801.8315,804.2491,593.1135
740.58606,794.57874,799.81683,286.48352
792.1612,796.99634,807.8755,702.3077
858.24176,799.81683,815.9341,1106.8499
838.49817,794.17584,808.2784,1033.5165
806.6667,797.3993,799.81683,660.40295
769.59705,794.9817,797.3993,305.42123
800.6227,788.93774,806.26373,621.7216
871.53845,796.99634,816.7399,1104.0293
868.315,801.02563,809.0842,1082.674
810.293,799.81683,794.9817,697.0696
761.13556,800.6227,791.3553,286.48352
799.81683,803.8461,809.0842,614.0659
865.09155,797.3993,818.3516,1102.8206
852.6007,792.5641,812.3077,1085.8975
805.05493,796.5934,802.6374,776.4469
757.50916,802.23444,799.011,296.55676
780.07324,805.4579,799.81683,502.85715
847.3626,799.41394,796.5934,1058.4982
863.0769,797.8022,800.6227,1100.403
822.381,799.41394,796.1905,841.31866
762.3443,794.57874,790.14655,395.27472
776.04395,801.4286,807.0696,456.11722
845.7509,808.68134,815.12823,998.86444
823.5897,796.1905,799.41394,879.59705
859.0476,802.23444,807.0696,1140.2931
760.7326,795.78754,796.1905,402.9304
764.7619,801.4286,802.6374,383.58975
844.5421,805.05493,813.1135,937.619
866.7033,804.2491,815.12823,1152.381
831.6484,806.6667,813.91943,903.7729
770.80585,799.011,795.38464,437.98535
758.71796,796.5934,794.17584,363.04028
830.0366,804.65204,811.9048,902.1612
869.92676,803.8461,818.3516,1146.337
828.8278,796.5934,809.0842,953.3333
765.16486,796.99634,796.5934,523.8095
745.42126,800.2198,798.20514,317.91208
805.8608,805.8608,809.89014,819.15753
851.79486,806.26373,813.5165,1118.1318
834.0659,801.4286,807.0696,992.01465
776.4469,794.57874,797.3993,611.6484
728.0952,786.1172,795.78754,297.76556
799.011,792.5641,812.3077,711.1722
853.8095,804.65204,815.12823,1114.9084
820.7692,797.3993,809.0842,1024.249
763.1502,786.1172,793.36993,616.08057
729.304,785.7143,787.326,267.14285
789.34064,791.3553,803.0403,651.13556
850.989,799.011,814.7253,1131.4286
831.2454,793.36993,812.71063,1084.6886
775.64105,791.75824,798.60803,672.0879
738.1685,801.02563,790.9524,277.21613
791.75824,803.0403,796.99634,572.5641
863.0769,801.02563,805.8608,1083.0769
857.8388,799.41394,808.68134,1106.4469
820.7692,807.47253,799.011,798.60803
760.32965,804.2491,790.14655,339.67032
776.8498,801.8315,801.8315,487.14285
855.82416,803.0403,809.89014,1062.9304
863.8828,799.41394,803.44324,1120.9524
817.9487,796.5934,797.3993,811.9048
761.53845,792.5641,796.99634,353.7729
759.92676,792.1612,807.47253,429.5238
830.0366,797.3993,819.5604,967.4359
854.61536,804.65204,813.91943,1122.1611
809.4872,799.41394,796.5934,884.0293
739.3773,790.54944,784.90845,404.94507
745.0183,795.78754,802.23444,397.69232
825.2015,804.2491,817.5458,955.7509
838.9011,802.23444,809.4872,1122.5641
813.1135,799.41394,798.20514,871.9414
758.71796,799.81683,790.14655,420.65933
746.2271,806.26373,797.3993,321.9414
821.978,810.696,808.68134,906.1905
856.63007,806.26373,813.1135,1164.8718
841.31866,804.2491,817.1429,960.58606
773.6264,798.20514,808.2784,519.7802
734.94507,794.57874,796.5934,311.86813
814.3223,806.6667,804.65204,831.2454
820.7692,798.20514,803.0403,1008.5348
778.46155,800.2198,801.4286,612.4542
845.34796,804.65204,808.68134,1149.9634
745.82416,795.38464,803.8461,278.82785
862.674,801.8315,828.022,1154.7986
842.52747,799.41394,813.5165,1045.2014
810.293,796.99634,820.7692,714.7985
784.10254,795.78754,800.2198,653.5531
734.94507,798.60803,796.1905,306.63004
786.52014,803.0403,805.4579,650.32965
842.52747,801.02563,817.1429,1118.5348
834.4689,790.54944,812.71063,1039.5604
793.7729,786.9231,801.8315,651.9414
744.61536,788.1319,794.57874,262.30768
783.2967,793.7729,804.2491,544.7619
858.6447,804.65204,809.4872,1087.1062
854.21246,802.23444,802.23444,1131.8315
801.02563,796.5934,799.81683,767.5824
733.3333,794.57874,799.41394,279.6337
766.3736,793.7729,805.05493,504.06595
853.00366,803.0403,821.1722,1080.6593
844.94507,803.0403,827.2161,1134.249
792.1612,796.99634,812.71063,830.0366
741.79486,791.75824,793.36993,334.43222
767.1795,793.36993,798.20514,420.65933
847.76556,800.6227,813.5165,1007.326
841.31866,801.02563,816.337,1124.1758
799.41394,803.0403,809.4872,869.5238
753.47986,802.6374,798.60803,406.55676
761.13556,803.0403,801.8315,384.79852
836.8865,807.47253,816.337,916.26373
855.0183,802.23444,816.7399,1128.2051
826.0073,794.9817,813.5165,919.4872
761.53845,790.54944,792.96704,435.56778
736.55676,786.1172,784.10254,326.37363
809.4872,796.99634,804.2491,871.53845
850.58606,811.0989,799.41394,1139.8901
819.5604,807.0696,785.7143,964.61536
749.85345,793.36993,781.28204,492.38095
722.0513,790.14655,786.52014,286.0806
788.5348,795.78754,800.2198,823.9927
844.5421,804.65204,806.26373,1153.1868
829.6337,806.26373,805.05493,1002.49084
764.35895,796.5934,792.96704,577.3993
731.7216,798.60803,793.36993,286.0806
796.99634,805.8608,809.0842,718.8278
836.08057,793.7729,802.6374,1106.044
810.293,788.5348,790.14655,990.80585
779.2674,801.8315,790.14655,634.21246
755.89746,807.0696,798.20514,309.45056
795.78754,808.68134,801.4286,655.56775
861.4652,812.3077,801.02563,1103.2234
858.24176,806.26373,802.6374,1041.1721
796.5934,798.60803,802.23444,683.7729
752.674,801.8315,801.8315,319.92673
788.93774,806.26373,807.8755,583.8461
848.1685,812.3077,809.0842,1087.1062
842.1245,811.0989,805.8608,1062.1245
786.9231,794.57874,798.20514,745.82416
730.9158,790.14655,787.326,346.92307
759.12085,794.57874,797.3993,527.8388
831.6484,796.99634,813.91943,1046.8132
827.2161,792.96704,806.26373,1091.9414
784.90845,792.1612,793.36993,809.4872
742.6007,794.17584,790.9524,370.29303
769.19415,797.8022,800.2198,472.23444
846.1539,797.8022,811.50183,1011.75824
858.24176,790.9524,814.3223,1137.4725
819.5604,789.34064,806.26373,894.10254
755.89746,790.9524,792.1612,390.8425
750.2564,794.17584,792.1612,356.1905
834.0659,801.02563,800.6227,948.49817
856.63007,807.8755,803.0403,1105.641
826.0073,804.2491,799.81683,875.56775
772.4176,801.8315,793.36993,473.04028
758.71796,802.6374,798.20514,363.44324
832.8571,801.4286,811.0989,898.93774
862.27106,807.47253,815.5311,1145.5311
826.8132,807.0696,813.5165,949.304
774.43225,794.17584,789.34064,504.8718
752.27106,791.3553,784.90845,315.4945
811.50183,793.36993,805.8608,840.5128
840.9158,792.96704,812.3077,1151.1721
803.0403,785.31134,801.8315,938.8278
750.65936,783.2967,782.0879,542.74725
720.4396,793.36993,784.90845,297.36264
781.685,798.20514,796.5934,724.87177
837.6923,795.78754,800.6227,1111.6849
815.12823,788.93774,798.60803,992.4176
764.7619,784.5055,791.3553,614.4689
736.55676,787.326,795.78754,298.57144
795.38464,791.3553,805.05493,666.04395
860.2564,802.23444,809.89014,1125.7876
846.55676,803.44324,804.2491,1063.7362
802.23444,794.9817,788.1319,710.3663
761.13556,791.3553,787.72894,295.75092
806.26373,796.99634,807.8755,581.02563
879.59705,802.23444,820.3663,1087.5092
866.30035,804.2491,813.91943,1090.3297
806.26373,800.6227,801.4286,772.8205
747.4359,796.5934,792.96704,310.2564
776.8498,799.81683,807.47253,523.00366
854.21246,797.3993,815.12823,1068.1685
855.0183,796.1905,811.0989,1124.9817
813.1135,802.6374,811.9048,840.10986
755.4945,803.8461,807.47253,375.1282
763.1502,802.6374,806.6667,460.54944
836.4835,804.65204,808.68134,987.1795
842.9304,805.8608,809.4872,1095.9707
810.293,798.20514,803.8461,835.2747
756.7033,796.5934,796.1905,389.23077
758.315,803.44324,806.6667,379.1575
846.55676,805.05493,815.9341,962.6007
870.7326,809.89014,809.4872,1172.1245
836.8865,816.337,805.8608,941.6484
776.4469,811.9048,797.3993,441.2088
771.2088,811.0989,804.2491,354.1758
842.52747,809.0842,813.91943,905.38464
867.9121,801.02563,807.47253,1104.0293
836.08057,801.8315,806.26373,923.5165
774.83514,802.23444,801.8315,512.1245
751.06226,803.0403,798.60803,294.5421
822.7839,812.3077,813.1135,799.41394
870.7326,808.68134,816.7399,1129.414
841.31866,801.02563,809.89014,1000.4762
767.1795,792.96704,805.8608,569.34064
724.4689,787.326,796.99634,290.91574
787.326,794.17584,801.8315,742.1978
838.9011,801.02563,808.68134,1120.9524
816.7399,799.011,801.4286,974.2857
759.92676,795.78754,794.17584,571.75824
732.9304,797.3993,791.75824,283.26007
798.20514,799.81683,804.2491,672.49084
847.76556,802.23444,812.71063,1097.5824
838.49817,806.26373,805.4579,1041.978
803.0403,805.8608,795.38464,722.8571
761.9414,802.23444,794.17584,336.4469
800.6227,805.8608,808.2784,619.304
866.30035,802.23444,813.5165,1108.0586
855.42126,793.7729,805.4579,1083.0769
807.47253,791.75824,801.02563,762.74725
747.03296,783.69965,797.3993,318.31503
758.315,788.1319,797.3993,481.90475
838.9011,799.81683,809.0842,1027.4725
848.5714,796.1905,807.8755,1089.9268
788.93774,789.7436,798.60803,788.5348
740.989,785.31134,788.93774,330.40292
761.13556,788.5348,795.78754,442.41757
827.619,789.7436,809.4872,1018.20514
840.10986,791.3553,805.4579,1122.1611
803.44324,797.3993,793.7729,840.5128
749.0476,798.20514,780.4762,373.9194
746.2271,793.36993,784.90845,377.94873
818.3516,790.9524,801.02563,934.3956
841.7216,795.38464,802.6374,1092.3444
800.6227,794.9817,797.8022,830.0366
744.61536,796.5934,797.3993,413.00366
745.82416,800.2198,800.2198,338.0586
823.1868,800.6227,805.4579,873.95605
860.65936,801.4286,809.89014,1125.3846
829.6337,799.81683,810.696,931.978
771.6117,800.6227,806.6667,523.4066
747.4359,803.0403,802.23444,326.37363
817.1429,807.8755,807.0696,810.293
827.619,805.05493,812.3077,963.4066
862.674,815.9341,813.1135,1122.967
764.35895,796.1905,806.6667,555.64105
736.55676,801.02563,804.65204,317.10623
798.20514,807.47253,818.7546,759.12085
838.0952,808.2784,816.337,1128.2051
808.68134,804.65204,807.8755,984.7619
753.8828,805.8608,801.4286,603.5897
715.6044,804.2491,804.2491,268.75458
760.7326,801.4286,812.71063,634.21246
825.6044,803.44324,826.4103,1093.956
792.5641,801.8315,817.5458,990.40295
728.0952,799.41394,789.34064,631.79486
691.02563,796.99634,784.90845,264.72528
746.2271,797.3993,806.26373,565.31134
829.2308,803.0403,826.4103,1057.2894
774.43225,791.75824,809.89014,754.2857
720.0366,796.5934,800.6227,317.10623
823.9927,799.011,819.9634,1063.3334
754.2857,804.65204,805.4579,522.6007
828.022,808.68134,814.3223,1051.2454
828.4249,805.4579,806.6667,1100.0
789.34064,793.7729,799.41394,784.5055
728.9011,791.3553,794.17584,319.5238
746.63007,801.4286,806.6667,469.81686
838.9011,807.8755,811.9048,1039.1575
840.9158,805.05493,800.2198,1116.1172
780.07324,796.5934,796.5934,830.84247
726.8865,790.54944,792.1612,362.23444
745.82416,791.75824,799.41394,371.50183
821.1722,793.36993,811.50183,934.7985
845.34796,796.99634,813.5165,1124.5787
811.9048,796.99634,810.696,907.3993
740.18317,795.38464,788.93774,431.53845
738.1685,798.60803,779.67035,330.0
829.2308,801.8315,800.6227,888.0586
867.1062,802.23444,813.91943,1129.8169
838.49817,799.81683,813.1135,953.3333
778.86444,790.14655,801.4286,508.49817
757.1062,792.5641,799.011,311.06226
836.4835,811.0989,808.2784,845.7509
877.98535,814.3223,810.696,1147.5458
850.989,807.47253,813.1135,965.42126
790.14655,798.60803,798.60803,526.63007
758.71796,795.38464,794.9817,297.36264
831.2454,800.6227,817.9487,782.49084
869.92676,799.81683,820.3663,1141.5018
827.2161,796.1905,808.68134,983.5531
776.04395,799.41394,801.02563,612.0513
745.0183,799.81683,801.4286,290.51282
814.7253,799.011,820.3663,644.2857
881.6117,799.81683,826.8132,1107.6556
862.27106,795.78754,825.6044,1034.7252
797.8022,795.38464,816.337,648.71796
755.89746,809.4872,805.8608,294.1392
793.7729,815.9341,810.696,595.5311
871.53845,809.89014,821.5751,1098.7913
868.315,817.1429,820.3663,1078.6447
807.8755,797.3993,807.0696,763.5531
743.4066,794.9817,801.02563,313.47986
784.5055,807.0696,817.5458,543.5531
867.50916,811.50183,819.9634,1041.1721
865.4945,803.44324,809.0842,1078.6447
831.2454,801.4286,796.5934,819.9634
775.64105,798.20514,786.1172,370.29303
797.3993,799.011,805.4579,512.9304
878.7912,805.05493,820.7692,1054.8718
888.0586,811.0989,813.91943,1145.5311
848.97437,811.50183,806.26373,873.1502
786.9231,806.6667,797.8022,393.663
843.73627,806.26373,810.293,971.4652
877.98535,809.89014,812.71063,1117.326
851.39197,802.6374,806.6667,916.6667
774.0293,794.17584,796.99634,426.30035
763.1502,801.8315,802.6374,327.17947
823.5897,811.50183,812.3077,894.90845
780.07324,804.65204,795.38464,431.9414
857.03296,811.9048,805.05493,1126.5934
839.304,808.68134,800.6227,938.022
772.4176,802.6374,797.8022,482.30768
746.63007,800.6227,798.60803,302.60074
808.68134,803.0403,807.47253,832.8571
847.3626,799.41394,804.65204,1110.0732
816.7399,798.20514,794.17584,923.5165
769.19415,796.99634,786.1172,535.09155
761.53845,795.78754,793.7729,289.30402
832.8571,794.9817,813.5165,749.85345
888.86444,795.78754,816.7399,1118.1318
867.1062,805.8608,815.9341,1012.96704
810.293,807.8755,801.8315,622.1245
761.13556,804.65204,787.326,260.69598
821.5751,807.8755,801.02563,671.28204
893.69965,810.696,809.4872,1142.7106
860.2564,804.65204,813.91943,1058.9011
798.60803,799.81683,813.5165,677.72894
748.6447,801.4286,804.2491,288.09525
801.02563,802.6374,806.26373,593.5165
860.2564,801.4286,807.0696,1088.7179
835.2747,798.20514,798.60803,1048.8279
798.20514,794.17584,793.36993,702.71063
751.06226,792.96704,798.20514,317.10623
776.04395,798.60803,811.9048,530.2564
846.55676,798.60803,813.5165,1044.3956
846.9597,795.38464,805.4579,1048.4249
815.5311,800.2198,789.34064,761.9414
767.1795,802.6374,775.64105,348.93774
796.1905,798.20514,794.57874,452.89377
874.7619,800.6227,809.89014,1017.3993
888.46155,809.4872,812.71063,1151.1721
837.28937,803.0403,807.0696,884.43225
761.13556,796.5934,795.38464,391.24542
772.01465,803.0403,798.60803,412.1978
858.6447,805.8608,813.1135,982.3443
875.16486,802.23444,815.9341,1135.0549
837.28937,799.41394,808.68134,878.3883
769.59705,793.7729,799.81683,417.83884
762.74725,795.38464,799.81683,354.1758
842.52747,803.44324,814.3223,912.6374
874.7619,809.4872,816.7399,1141.5018
830.4396,801.4286,802.23444,927.5458
770.0,792.5641,794.57874,491.5751
758.71796,801.02563,810.696,338.86447
823.9927,805.8608,824.7985,846.9597
847.76556,800.2198,818.7546,1119.7435
820.3663,796.1905,810.293,944.87177
770.80585,795.78754,798.60803,542.3443
745.42126,800.6227,794.9817,312.27106
820.7692,807.47253,806.26373,773.6264
873.1502,805.05493,813.91943,1126.5934
836.08057,800.2198,813.1135,995.64105
780.4762,797.8022,801.8315,621.31866
749.45056,803.44324,797.8022,294.94507
807.47253,808.2784,807.0696,685.78754
862.27106,803.8461,807.47253,1104.4323
841.31866,797.8022,804.2491,1040.7693
794.17584,793.7729,807.47253,700.293
746.63007,799.011,801.02563,291.3187
782.8938,807.0696,808.68134,582.23444
846.55676,813.5165,815.5311,1085.0916
838.0952,815.12823,805.05493,1069.3773
743.8095,800.2198,788.1319,338.86447
778.86444,799.81683,797.3993,540.32965
853.4066,802.6374,815.9341,1003.2967
855.82416,804.65204,821.1722,1079.8535
803.44324,804.2491,808.68134,819.15753
792.96704,809.0842,794.57874,741.39197
737.76556,798.20514,799.41394,337.65567
755.4945,802.23444,809.4872,464.1758
832.8571,806.6667,821.5751,1025.0549
853.4066,797.8022,817.9487,1112.0879
812.3077,791.75824,811.0989,825.2015
758.315,796.99634,809.0842,351.75824
762.3443,801.8315,813.5165,403.73627
837.6923,809.0842,823.1868,978.315
854.61536,812.3077,818.3516,1087.1062
810.696,805.05493,807.47253,886.4469
764.35895,799.41394,801.8315,481.50183
761.53845,799.81683,794.57874,395.67764
830.0366,796.1905,802.23444,928.7546
853.4066,794.57874,807.0696,1108.8645
807.0696,796.99634,799.41394,899.7436
746.2271,799.81683,790.9524,500.43958
734.5421,807.0696,788.5348,338.86447
815.12823,804.65204,797.3993,818.3516
867.50916,801.02563,802.6374,1115.7142
834.0659,802.6374,800.2198,957.76556
778.86444,793.36993,791.3553,543.5531
744.21246,788.1319,790.14655,281.24542
808.68134,799.011,799.81683,770.80585
867.1062,802.6374,801.8315,1136.6666
830.4396,794.17584,799.011,960.989
766.3736,786.9231,794.9817,569.34064
736.1539,790.9524,796.99634,291.72162
792.5641,797.3993,811.50183,693.0403
847.3626,792.96704,817.9487,1124.5787
836.8865,790.54944,804.65204,1052.0513
800.2198,790.9524,790.14655,637.4359
763.95605,788.93774,797.3993,298.57144
811.9048,793.7729,809.89014,631.39197
869.12085,791.75824,811.0989,1079.8535
855.0183,791.3553,809.89014,1078.2417
799.41394,799.011,806.26373,766.3736
745.42126,796.1905,788.5348,340.87912
780.07324,799.81683,790.14655,565.31134
849.3773,806.26373,803.0403,1065.751
845.7509,803.44324,804.65204,1108.0586
807.47253,802.23444,798.60803,805.4579
740.989,799.81683,788.93774,327.17947
753.0769,796.1905,799.011,489.96338
830.84247,800.2198,804.2491,1035.1282
836.4835,801.4286,805.05493,1106.044
799.41394,795.78754,796.99634,852.1978
753.0769,794.9817,788.1319,394.8718
769.59705,802.6374,805.4579,443.62637
832.4542,797.8022,811.50183,978.71796
840.5128,794.17584,805.4579,1106.4469
809.0842,798.20514,798.60803,875.9707
752.674,792.96704,792.1612,431.53845
759.92676,788.93774,803.0403,391.64835
836.4835,794.17584,820.3663,933.5897
825.2015,797.3993,813.1135,933.5897
775.2381,795.78754,799.81683,466.99634
855.42126,799.011,819.9634,1136.2638
759.5238,806.26373,794.57874,297.76556
868.315,810.293,820.7692,1154.3956
830.84247,813.91943,811.50183,853.00366
838.0952,803.0403,812.3077,957.3626
785.31134,798.60803,808.2784,521.79486
760.7326,801.02563,805.4579,309.45056
816.337,801.8315,807.8755,789.34064
862.27106,804.2491,810.696,1143.9194
848.97437,807.0696,803.8461,1023.8461
802.6374,804.2491,799.41394,609.2308
761.53845,800.6227,796.5934,282.05127
813.1135,801.02563,803.8461,688.60803
875.9707,806.26373,813.91943,1122.967
856.2271,803.0403,803.8461,1035.1282
792.5641,794.57874,788.5348,649.5238
747.4359,794.17584,791.3553,271.5751
797.3993,798.20514,804.65204,610.4396
855.0183,798.20514,816.7399,1102.8206
835.2747,798.60803,810.696,1059.7069
786.1172,793.36993,799.011,691.4286
740.989,788.5348,792.1612,281.64835
769.19415,791.75824,792.5641,520.58606
826.8132,798.60803,801.4286,1025.0549
833.663,803.0403,801.02563,1058.0952
811.50183,799.81683,804.65204,777.6557
767.1795,794.17584,801.02563,351.75824
782.8938,799.011,799.41394,504.8718
854.21246,806.6667,806.6667,1035.5311
850.989,805.05493,807.47253,1071.392
809.89014,800.6227,798.20514,802.23444
766.77655,801.8315,795.38464,389.23077
780.4762,805.05493,808.2784,458.93774
834.0659,802.23444,810.293,983.5531
829.2308,807.8755,808.68134,906.1905
756.7033,796.99634,794.17584,416.2271
750.65936,793.36993,792.1612,336.4469
827.619,804.2491,807.47253,912.23444
857.03296,806.26373,811.0989,1128.608
853.4066,802.23444,811.9048,1149.5604
814.7253,791.3553,809.0842,878.3883
748.6447,786.9231,801.8315,416.63004
739.3773,795.38464,796.99634,325.16483
822.381,803.0403,809.4872,875.56775
855.82416,799.81683,809.89014,1145.5311
820.3663,796.99634,802.6374,932.381
772.8205,799.81683,799.81683,518.1685
745.0183,802.23444,802.6374,321.9414
801.02563,803.44324,811.50183,781.685
848.97437,803.44324,804.65204,1135.4579
834.4689,801.4286,795.38464,1012.5641
804.2491,804.65204,784.5055,641.4652
770.80585,801.4286,781.685,319.12088
818.3516,796.5934,800.6227,680.14655
887.25275,806.6667,811.0989,1107.2528
870.32965,808.2784,807.8755,1035.1282
807.8755,805.05493,801.4286,692.6374
761.9414,801.8315,792.1612,289.70697
802.6374,792.96704,790.54944,616.08057
864.2857,793.36993,798.20514,1114.5055
853.4066,790.14655,801.4286,1068.5714
760.32965,796.99634,792.5641,292.9304
797.8022,788.93774,795.78754,719.6337
794.9817,797.3993,802.23444,529.0476
847.76556,797.3993,810.293,1040.3663
848.97437,791.75824,813.1135,1036.7399
816.7399,799.81683,801.02563,757.50916
756.30035,794.17584,792.5641,321.53845
770.0,790.9524,802.6374,479.48718
836.08057,799.41394,817.1429,1008.1319
836.08057,807.8755,817.1429,1102.0146
790.14655,803.44324,801.8315,836.8865
764.35895,807.0696,799.011,421.06226
740.989,801.4286,790.54944,320.7326
833.2601,808.68134,802.6374,992.01465
854.21246,805.4579,809.4872,1116.5201
821.5751,801.4286,805.8608,914.65204
759.92676,798.60803,783.2967,436.77655
761.9414,800.2198,787.72894,373.51648
836.08057,803.44324,803.0403,904.9817
867.1062,798.60803,804.2491,1143.5165
830.0366,791.75824,797.3993,949.707
763.5531,795.38464,790.14655,457.32602
757.1062,805.4579,801.8315,330.80585
832.8571,810.696,813.1135,884.0293
859.45056,807.8755,805.8608,1153.9927
819.5604,800.6227,799.41394,931.5751
758.71796,796.1905,792.5641,476.66666
738.97437,798.60803,799.011,346.52014
792.5641,801.02563,812.3077,805.4579
805.05493,793.7729,809.4872,1073.8096
759.92676,792.5641,800.2198,968.24176
708.3516,800.2198,786.52014,592.71063
672.49084,803.0403,783.2967,266.337
803.0403,790.9524,808.68134,1155.6044
772.8205,784.5055,803.8461,1040.7693
714.7985,789.7436,796.99634,641.8681
680.54944,799.41394,788.1319,284.06595
728.9011,803.44324,804.2491,620.10986
742.6007,801.02563,802.6374,720.0366
790.54944,800.6227,806.6667,1102.8206
737.76556,792.5641,801.02563,727.6923
684.57874,797.8022,797.3993,302.60074
786.9231,794.57874,798.60803,1094.762
736.55676,801.8315,802.23444,564.90845
791.3553,798.60803,803.8461,1048.4249
780.4762,793.36993,799.41394,1074.2124
739.7802,789.34064,798.60803,786.9231
679.7436,787.326,800.2198,294.94507
708.3516,785.31134,809.4872,460.1465
786.52014,788.5348,817.1429,1053.2601
800.2198,791.3553,812.3077,1086.7032
769.19415,795.78754,808.2784,818.3516
709.9634,798.60803,795.38464,337.25275
716.8132,798.20514,797.3993,394.06595
807.0696,799.011,815.9341,1000.4762
844.1392,801.8315,817.9487,1154.3956
807.0696,803.0403,809.0842,907.8022
749.85345,805.05493,797.3993,421.06226
873.95605,811.9048,822.381,1163.663
855.0183,812.71063,813.91943,941.2454
833.2601,808.68134,823.1868,941.2454
764.7619,798.20514,804.2491,493.99268
769.59705,809.4872,804.2491,366.66666
734.5421,789.7436,796.1905,321.9414
799.41394,794.9817,808.68134,841.31866
837.6923,806.26373,807.47253,1146.7399
806.6667,808.2784,799.011,953.3333
762.74725,808.2784,796.99634,523.00366
726.4835,805.4579,799.81683,309.0476
791.75824,804.65204,812.71063,782.8938
836.4835,803.8461,814.7253,1116.1172
806.6667,806.6667,807.0696,988.3883
762.74725,807.8755,796.5934,580.6227
728.9011,804.2491,795.78754,279.6337
782.0879,802.23444,803.8461,710.7692
840.9158,801.02563,808.68134,1134.652
809.0842,795.78754,811.0989,1020.2198
740.58606,786.1172,797.8022,610.4396
705.12823,788.5348,787.72894,259.8901
771.2088,798.20514,803.44324,635.0183
844.5421,804.2491,816.7399,1111.2821
830.0366,802.23444,801.8315,1060.9158
774.43225,791.75824,789.7436,693.8461
723.663,784.10254,792.1612,297.36264
772.01465,792.1612,803.44324,575.78754
848.97437,804.2491,813.91943,1085.8975
836.4835,804.65204,812.71063,1097.1794
786.9231,799.41394,802.23444,796.1905
724.87177,796.99634,786.1172,353.36996
750.2564,797.3993,793.7729,525.42126
826.0073,796.1905,812.3077,1067.3627
832.4542,801.8315,813.5165,1110.4762
801.4286,801.02563,809.0842,814.3223
745.42126,799.81683,796.1905,360.6227
751.4652,803.8461,799.011,423.47986
826.8132,808.68134,808.68134,1006.1172
844.1392,810.293,802.6374,1152.7839
813.5165,804.65204,803.8461,916.6667
755.4945,797.3993,798.20514,455.7143
755.89746,795.38464,798.60803,396.48352
834.0659,801.8315,811.50183,926.337
854.21246,805.05493,809.0842,1131.0256
817.9487,797.8022,796.99634,863.0769
760.32965,796.1905,790.9524,435.16483
749.45056,796.1905,799.81683,378.35165
827.619,791.75824,813.91943,910.6227
857.4359,790.54944,809.0842,1158.4249
815.9341,792.5641,802.6374,964.21246
767.1795,794.57874,799.81683,501.64835
758.315,797.3993,794.9817,319.5238
833.663,797.8022,809.4872,819.9634
872.74725,794.9817,816.337,1105.238
844.94507,789.34064,809.89014,989.19415
794.57874,784.90845,792.5641,598.3516
757.9121,788.1319,785.7143,300.18314
825.6044,799.81683,802.6374,734.1392
879.59705,801.02563,805.4579,1144.3224
846.55676,800.6227,799.011,1023.8461
813.5165,806.26373,798.20514,651.13556
778.86444,799.81683,797.8022,313.47986
813.91943,796.99634,812.71063,652.3443
879.59705,803.0403,823.1868,1124.9817
870.7326,803.44324,808.68134,1099.1941
811.50183,801.8315,800.2198,727.28937
752.27106,800.6227,795.78754,288.9011
784.5055,799.81683,803.44324,572.5641
850.58606,801.8315,809.89014,1086.3004
847.3626,801.02563,804.65204,1085.8975
815.5311,795.38464,797.8022,760.7326
767.98535,798.20514,800.2198,307.03296
780.4762,803.44324,807.47253,536.30035
834.0659,801.8315,815.12823,1060.1099
841.31866,796.99634,815.5311,1122.1611
801.02563,795.38464,796.99634,865.4945
738.97437,796.1905,790.14655,376.337
755.09155,801.8315,803.0403,443.22345
840.5128,806.6667,812.3077,1023.44324
853.4066,802.23444,810.293,1141.9048
796.99634,799.81683,805.4579,859.45056
740.989,798.20514,799.41394,391.64835
748.24176,794.17584,811.50183,387.21613
853.00366,809.0842,828.4249,1154.3956
823.1868,798.60803,822.7839,964.21246
803.44324,808.2784,809.4872,938.022
745.42126,798.60803,788.93774,475.4579
753.47986,801.8315,794.9817,341.28204
823.1868,805.05493,808.2784,875.56775
843.73627,794.9817,811.0989,1161.2454
805.8608,791.75824,799.81683,944.4689
754.68866,795.38464,793.36993,516.55676
740.58606,802.6374,796.5934,358.60806
807.0696,806.26373,806.26373,845.7509
835.6777,799.41394,812.71063,1154.7986
812.3077,791.75824,808.68134,1010.14655
743.4066,796.1905,790.14655,307.83884
773.6264,792.5641,796.1905,581.8315
809.89014,802.23444,807.0696,730.10986
861.8681,803.44324,817.1429,1117.326
839.304,804.2491,808.2784,1066.5568
779.67035,805.4579,800.2198,683.7729
724.87177,798.60803,800.2198,304.21246
768.3883,794.9817,816.7399,653.95605
826.8132,800.2198,821.5751,1084.6886
813.1135,805.4579,809.0842,1054.0659
764.35895,802.23444,800.2198,729.304
813.1135,805.4579,812.71063,1098.3883
801.02563,798.60803,808.2784,1111.2821
744.21246,806.6667,803.0403,584.2491
713.5897,803.44324,796.5934,336.4469
754.68866,800.2198,803.8461,768.3883
707.9487,803.8461,802.23444,345.31134
736.9597,804.65204,815.9341,549.59705
797.8022,803.44324,822.7839,1068.1685
790.54944,800.6227,808.68134,1115.7142
751.8681,794.57874,801.8315,824.3956
712.381,794.9817,800.2198,383.58975
724.4689,802.6374,808.2784,466.5934
772.01465,808.68134,812.71063,892.8938
809.4872,803.44324,815.12823,1115.7142
712.381,799.41394,805.05493,410.18314
714.3956,794.17584,809.4872,406.15384
796.5934,803.44324,815.9341,994.0293
806.6667,795.38464,820.3663,987.5824
811.9048,789.7436,816.337,1151.1721
761.53845,789.34064,804.65204,921.9048
710.3663,790.9524,792.96704,458.93774
701.0989,792.5641,796.5934,346.11722
773.6264,795.38464,805.4579,871.53845
808.2784,793.7729,808.68134,1106.044
758.71796,791.75824,785.31134,528.24176
740.989,799.011,784.90845,346.52014
799.011,792.1612,803.8461,930.7692
811.9048,809.4872,801.4286,825.6044
862.27106,813.1135,808.2784,1141.5018
834.87177,799.011,804.65204,972.27106
778.46155,788.93774,797.8022,548.7912
739.3773,790.54944,788.5348,274.3956
799.81683,794.9817,790.9524,722.4542
858.24176,796.5934,802.23444,1120.5494
838.49817,797.8022,798.20514,1026.2638
780.4762,794.17584,787.72894,619.304
728.0952,792.96704,787.326,276.00732
784.10254,797.3993,799.011,672.0879
854.21246,797.8022,808.2784,1108.8645
836.08057,794.17584,799.41394,1037.5458
788.93774,801.4286,791.3553,718.4249
750.65936,804.65204,788.5348,336.4469
777.6557,797.8022,796.1905,557.25275
835.6777,799.41394,810.696,1058.9011
843.3333,801.4286,810.696,1092.3444
806.26373,797.3993,796.1905,743.4066
745.42126,796.99634,788.93774,312.27106
784.10254,805.05493,807.0696,534.2857
832.0513,802.6374,803.8461,1097.9854
798.20514,798.20514,800.2198,803.0403
743.00366,792.96704,790.54944,375.93405
843.3333,804.2491,808.68134,1070.1831
747.03296,795.78754,793.36993,466.5934
828.8278,799.81683,806.6667,1102.8206
788.5348,801.4286,796.1905,869.92676
818.3516,796.1905,803.44324,1006.52014
729.304,797.8022,784.5055,415.0183
725.6777,794.17584,799.011,396.88644
812.71063,793.36993,819.5604,992.4176
836.8865,792.5641,807.0696,1162.0513
761.53845,795.78754,785.7143,490.3663
807.0696,790.9524,792.5641,899.7436
750.2564,803.8461,786.52014,400.51282
812.3077,802.6374,805.05493,896.9231
825.6044,796.99634,810.696,1158.8279
797.8022,792.96704,801.4286,979.12085
744.21246,782.49084,789.34064,544.7619
718.8278,780.07324,783.69965,338.86447
781.685,792.5641,800.6227,806.6667
828.8278,803.0403,806.26373,1126.9963
803.44324,800.2198,793.7729,971.06226
748.24176,797.8022,791.75824,547.1795
718.4249,791.3553,795.38464,322.74725
770.80585,791.75824,807.47253,772.01465
824.7985,802.23444,816.337,1115.7142
799.81683,798.60803,811.9048,1016.1905
753.0769,796.5934,801.02563,667.25275
711.1722,800.2198,796.99634,341.68497
751.4652,796.99634,817.9487,688.60803
812.71063,791.3553,820.3663,1126.9963
797.3993,788.93774,811.0989,1075.4213
751.06226,789.34064,805.4579,730.5128
716.8132,795.38464,803.0403,346.52014
745.42126,805.05493,813.91943,620.5128
793.7729,804.65204,816.337,1093.956
792.5641,804.2491,807.0696,1077.4359
749.0476,799.011,800.2198,756.30035
691.8315,791.3553,797.3993,319.12088
729.304,795.78754,805.05493,518.5714
805.05493,796.99634,809.89014,1087.9121
808.2784,799.011,807.8755,1141.0989
765.16486,799.41394,794.9817,800.6227
713.9927,796.99634,792.96704,338.46155
731.31866,802.23444,803.8461,452.89377
816.337,811.50183,814.7253,1027.0696
838.0952,807.47253,816.7399,1160.0366
794.9817,795.38464,810.696,871.9414
737.76556,791.3553,795.78754,379.96338
745.42126,798.60803,792.5641,426.7033
816.337,801.02563,803.44324,989.19415
840.10986,801.8315,805.05493,1149.5604
805.05493,798.20514,801.02563,896.52014
744.21246,787.326,792.5641,460.9524
745.0183,792.1612,801.02563,405.348
823.1868,803.8461,817.1429,933.9927
850.58606,803.0403,815.12823,1149.9634
807.8755,801.8315,810.293,958.1685
741.39197,801.02563,801.4286,497.21613
733.73627,797.8022,797.8022,321.13553
809.0842,798.60803,810.696,846.9597
833.2601,794.57874,811.0989,1164.8718
811.50183,798.20514,805.8608,1007.72894
767.98535,807.47253,809.0842,570.14655
733.73627,803.44324,796.5934,319.12088
781.28204,794.57874,798.60803,779.2674
838.9011,798.60803,816.337,1146.7399
834.0659,798.20514,813.5165,1052.0513
778.46155,795.78754,803.0403,661.2088
734.94507,798.60803,804.2491,286.48352
791.75824,799.011,810.293,645.4945
846.55676,805.4579,811.9048,1084.2858
781.685,796.1905,794.17584,652.3443
861.8681,803.0403,817.1429,1126.1904
734.1392,792.1612,788.1319,283.26007
792.1612,803.8461,807.8755,624.5421
869.12085,813.91943,823.9927,1129.011
852.1978,808.68134,817.5458,1092.7472
805.05493,802.6374,810.696,736.1539
756.30035,802.6374,807.0696,340.07327
783.69965,807.8755,814.3223,558.0586
858.6447,815.12823,820.3663,1097.5824
844.94507,806.26373,813.91943,1134.652
789.7436,801.8315,805.4579,810.696
736.9597,804.2491,791.3553,354.1758
758.71796,805.4579,796.5934,471.02563
827.2161,806.26373,808.2784,1012.5641
804.65204,804.65204,801.4286,865.4945
743.00366,801.4286,792.1612,431.13553
747.4359,802.23444,796.5934,423.07693
824.3956,803.8461,809.4872,976.7033
841.7216,801.4286,813.5165,1147.9487
841.31866,807.47253,808.68134,1122.967
805.05493,798.20514,805.05493,895.7143
748.24176,798.20514,799.81683,466.1905
740.58606,803.44324,809.4872,394.46887
817.9487,810.293,823.1868,916.26373
839.304,802.6374,809.4872,1153.1868
798.60803,796.1905,798.20514,943.2601
741.39197,796.1905,794.9817,495.20148
728.49817,795.78754,796.1905,335.64102
803.8461,798.20514,807.47253,814.7253
841.31866,802.23444,811.0989,1118.9377
825.6044,812.3077,805.8608,1006.52014
776.04395,812.3077,795.38464,592.3077
724.87177,805.4579,792.1612,310.2564
776.8498,804.65204,804.65204,771.6117
838.49817,798.60803,812.3077,1154.7986
826.0073,796.5934,806.6667,994.0293
778.46155,799.81683,800.2198,609.2308
732.52747,801.02563,790.54944,308.24176
776.8498,802.23444,801.8315,687.3993
835.2747,802.6374,815.12823,1096.7766
815.9341,799.81683,817.9487,1026.2638
763.1502,796.99634,806.6667,688.60803
718.8278,797.8022,801.4286,284.8718
767.5824,801.4286,814.3223,592.71063
832.0513,803.44324,817.5458,1087.9121
822.381,801.4286,813.1135,1084.2858
769.59705,796.1905,804.2491,745.82416
716.4103,794.17584,796.5934,328.38828
761.53845,801.02563,809.89014,556.04395
834.4689,807.0696,821.5751,1101.6117
792.5641,802.6374,799.41394,799.011
835.2747,807.8755,815.5311,1136.2638
745.82416,795.38464,807.8755,512.9304
734.94507,798.20514,790.9524,394.06595
814.7253,792.96704,818.3516,1005.7143
834.0659,795.78754,808.2784,1136.6666
805.05493,802.6374,797.8022,871.53845
747.8388,805.05493,784.5055,381.97803
748.24176,804.65204,787.72894,402.52747
816.7399,807.47253,803.0403,982.74725
834.0659,799.011,805.05493,1151.978
811.0989,792.96704,803.44324,924.7253
756.7033,796.99634,789.7436,466.5934
755.4945,799.41394,789.7436,391.24542
838.0952,808.2784,805.4579,924.3223
857.4359,808.2784,802.6374,1135.8608
815.9341,795.78754,796.5934,922.3077
749.45056,789.7436,791.3553,477.0696
737.3626,793.7729,794.9817,348.5348
811.0989,796.5934,811.0989,842.9304
847.76556,797.3993,812.71063,1167.6923
826.0073,799.81683,797.8022,1019.41394
764.35895,795.78754,784.5055,551.6117
738.97437,798.60803,790.54944,306.2271
806.6667,800.6227,806.6667,803.8461
851.79486,796.5934,812.3077,1159.2307
829.6337,792.1612,805.05493,1008.5348
778.46155,789.34064,794.57874,606.4103
738.5714,796.1905,791.75824,272.38095
784.5055,800.6227,801.4286,690.2198
836.8865,799.41394,802.23444,1110.8792
830.4396,798.60803,797.8022,1037.1428
781.28204,797.3993,790.14655,666.04395
734.1392,792.1612,788.93774,299.3773
783.69965,791.75824,799.81683,646.30035
844.5421,795.38464,805.05493,1143.5165
822.381,798.60803,805.4579,1085.8975
775.64105,798.60803,794.9817,704.7253
730.9158,790.14655,790.54944,314.68866
755.09155,785.7143,800.2198,553.6264
825.2015,795.38464,807.8755,1063.7362
835.6777,800.6227,811.50183,1109.6703
790.9524,797.3993,800.2198,814.7253
716.0073,793.36993,781.685,344.90842
726.8865,798.20514,791.3553,458.13187
813.1135,806.6667,807.47253,1009.7436
826.8132,798.20514,806.26373,1099.597
785.31134,791.3553,801.4286,835.2747
731.7216,794.17584,792.1612,396.48352
742.1978,798.60803,800.6227,453.2967
808.68134,802.23444,812.71063,999.2674
817.5458,800.6227,801.8315,1116.1172
781.28204,801.02563,793.7729,866.7033
733.3333,797.8022,792.1612,415.8242
738.1685,797.3993,801.02563,362.23444
821.5751,798.60803,815.12823,944.87177
850.58606,800.2198,811.9048,1191.4652
809.89014,802.23444,802.23444,965.82416
744.21246,799.41394,790.9524,497.61905
722.0513,794.57874,795.38464,339.2674
794.17584,794.17584,804.2491,888.46155
830.4396,795.38464,799.81683,1186.63
804.2491,796.99634,797.3993,979.5238
747.8388,795.78754,801.4286,527.8388
708.3516,796.5934,793.7729,308.24176
771.2088,801.8315,793.36993,788.5348
830.4396,802.6374,804.2491,1140.2931
803.8461,798.20514,803.0403,981.13556
752.27106,792.1612,794.57874,564.10254
717.2161,790.9524,792.1612,266.73993
773.22345,794.9817,804.65204,693.0403
828.8278,799.41394,805.4579,1114.1025
729.304,793.36993,794.9817,300.5861
773.22345,797.8022,803.44324,621.31866
839.707,799.011,816.337,1108.0586
832.4542,794.9817,811.50183,1087.5092
780.4762,795.38464,794.57874,691.8315
762.3443,795.78754,795.78754,664.83514
805.4579,803.0403,798.20514,1037.1428
729.304,803.0403,788.1319,296.95972
749.0476,803.8461,793.7729,545.56775
807.0696,803.0403,799.81683,1021.4286
816.337,798.60803,813.1135,1067.3627
774.83514,788.1319,810.293,785.7143
725.2747,790.54944,794.17584,342.08792
750.65936,799.41394,797.3993,469.011
790.54944,801.8315,800.2198,822.381
818.3516,807.47253,809.0842,1006.52014
738.1685,801.02563,804.2491,364.24908
738.5714,799.81683,811.50183,410.989
819.15753,805.4579,803.8461,1097.9854
823.9927,803.0403,818.7546,985.9707
849.7802,806.26373,811.0989,1145.9341
807.8755,811.0989,804.65204,896.52014
746.63007,800.2198,794.57874,412.60074
822.381,801.8315,814.3223,942.8571
849.3773,802.23444,814.7253,1141.5018
747.4359,807.0696,791.75824,458.93774
811.9048,797.8022,808.2784,949.304
754.68866,795.78754,790.54944,506.48352
727.6923,803.44324,788.1319,344.10257
789.7436,807.47253,806.6667,841.31866
825.6044,803.0403,805.4579,1116.9231
798.20514,797.8022,797.8022,971.8681
735.7509,791.75824,791.75824,548.7912
707.1429,791.75824,792.1612,313.07693
784.90845,795.78754,803.0403,777.6557
829.6337,810.293,803.8461,1035.5311
841.31866,803.44324,803.44324,1134.249
769.19415,798.60803,793.7729,618.0952
733.73627,794.17584,792.96704,297.36264
800.6227,794.9817,811.9048,713.5897
834.87177,791.3553,809.0842,1124.1758
806.26373,795.38464,802.6374,1055.2748
765.56775,803.44324,792.5641,696.26373
713.9927,805.4579,790.14655,312.27106
756.7033,800.6227,811.50183,632.1978
830.4396,801.4286,816.337,1104.0293
829.6337,796.1905,813.91943,1080.2565
778.0586,793.7729,805.4579,748.24176
728.9011,800.2198,788.1319,355.3846
769.19415,801.8315,794.17584,586.6667
837.6923,802.6374,805.05493,1079.0476
840.5128,803.8461,803.0403,1108.4615
795.78754,798.20514,804.65204,804.2491
748.24176,792.1612,796.5934,353.36996
767.5824,793.7729,801.8315,513.3333
834.87177,800.2198,811.9048,1041.978
844.94507,802.6374,803.44324,1094.762
799.81683,803.0403,795.38464,844.1392
741.79486,801.02563,784.90845,390.03662
751.4652,803.0403,799.011,447.25275
821.5751,809.89014,820.7692,992.01465
832.4542,804.2491,819.5604,1118.5348
802.6374,792.96704,806.26373,909.81683
735.34796,792.96704,790.54944,439.19415
715.6044,800.2198,795.38464,376.337
794.9817,809.0842,811.50183,938.022
811.9048,805.05493,807.0696,1108.0586
774.0293,792.1612,796.5934,917.47253
718.8278,781.685,784.10254,455.7143
706.7399,783.69965,786.1172,317.10623
773.6264,792.1612,802.23444,883.6264
817.1429,801.02563,809.4872,1139.8901
801.8315,802.6374,805.4579,950.10986
745.0183,796.1905,796.99634,518.97437
719.6337,792.5641,797.3993,300.5861
788.93774,796.5934,811.50183,799.011
831.6484,802.6374,819.15753,1145.5311
822.7839,803.8461,810.293,1016.5934
767.5824,798.60803,795.78754,616.08057
714.3956,795.38464,793.7729,309.0476
777.25275,798.60803,807.47253,700.293
840.10986,806.26373,816.7399,1124.9817
828.8278,803.8461,814.7253,1044.3956
777.6557,796.99634,806.6667,639.85345
733.3333,792.96704,805.4579,300.5861
776.8498,795.78754,810.293,680.9524
814.3223,792.96704,806.6667,1102.8206
798.60803,792.96704,807.0696,1021.8315
760.32965,798.20514,809.0842,692.23444
707.1429,792.1612,803.44324,283.26007
750.65936,802.23444,810.293,581.4286
829.2308,809.4872,821.1722,1093.1501
819.5604,803.0403,813.1135,1071.7949
767.98535,803.0403,809.4872,770.0
711.1722,803.8461,805.4579,346.11722
739.3773,800.6227,811.9048,507.28937
821.5751,797.3993,820.7692,1049.2307
819.5604,790.14655,811.50183,1147.1428
778.0586,794.57874,807.8755,846.9597
715.2015,796.1905,792.5641,363.04028
721.2454,794.17584,801.02563,415.0183
800.2198,796.99634,822.7839,964.21246
808.2784,798.20514,815.9341,1125.7876
762.3443,799.81683,801.02563,886.04395
703.5165,805.4579,795.78754,420.65933
699.0842,812.71063,805.05493,359.011
772.4176,810.293,816.7399,936.0073
794.57874,806.26373,818.3516,1148.3517
755.89746,800.2198,809.4872,909.81683
710.3663,792.5641,795.38464,444.43222
702.3077,794.57874,802.23444,349.7436
755.89746,798.20514,815.12823,890.4762
803.8461,801.8315,813.1135,1143.5165
777.6557,805.05493,805.4579,960.18317
705.5311,805.8608,796.1905,494.79852
692.6374,807.0696,803.8461,295.348
762.3443,804.65204,811.50183,778.0586
803.8461,801.4286,803.0403,1105.238
793.7729,800.2198,804.65204,1005.7143
749.45056,799.011,801.4286,604.7985
710.3663,805.8608,795.78754,310.65933
770.80585,812.3077,815.9341,763.1502
828.022,811.0989,823.9927,1161.6483
807.0696,804.2491,805.4579,1025.4579
754.2857,801.8315,787.326,652.3443
713.9927,807.0696,786.1172,305.42123
768.7912,805.8608,802.23444,668.46155
821.978,802.23444,807.47253,1120.5494
792.1612,799.41394,801.8315,1048.4249
757.1062,801.4286,797.3993,716.0073
718.4249,802.23444,796.99634,308.64468
757.50916,802.23444,810.293,585.05493
826.8132,803.0403,817.5458,1063.7362
814.7253,802.6374,815.5311,1070.1831
776.04395,799.41394,803.44324,767.5824
731.7216,799.81683,792.96704,342.49084
750.2564,804.65204,804.2491,511.72162
815.9341,805.4579,814.3223,1009.34064
822.381,806.26373,813.1135,1130.6227
786.9231,803.8461,803.44324,881.6117
725.6777,800.2198,793.36993,387.21613
731.7216,799.011,803.44324,468.20514
803.8461,799.41394,810.696,1037.9487
817.9487,799.011,800.2198,1126.9963
794.57874,796.5934,798.60803,888.0586
755.09155,798.20514,794.9817,462.16116
764.35895,801.02563,796.99634,437.98535
830.0366,798.20514,810.696,981.13556
850.58606,798.20514,814.7253,1161.6483
814.3223,800.6227,809.89014,943.2601
749.45056,803.8461,803.44324,487.54578
732.1245,798.60803,797.8022,352.16116
809.89014,796.1905,805.05493,906.5934
853.00366,794.9817,810.696,1186.227
822.7839,792.1612,809.4872,992.01465
751.06226,791.3553,803.44324,528.24176
720.4396,795.38464,796.99634,305.42123
791.3553,802.23444,802.6374,804.2491
835.2747,795.78754,802.23444,1154.3956
803.44324,792.96704,797.8022,1030.2931
761.53845,797.8022,796.99634,622.52747
747.03296,798.60803,807.0696,332.41757
798.60803,802.6374,819.15753,736.9597
834.87177,809.0842,810.293,1115.7142
809.89014,805.8608,799.81683,1025.4579
759.12085,801.4286,794.17584,664.83514
727.6923,801.4286,791.75824,327.98535
786.52014,804.2491,804.2491,681.75824
848.97437,809.4872,815.9341,1142.3077
831.6484,805.05493,810.696,1076.227
791.3553,800.2198,798.20514,744.61536
739.3773,799.41394,796.5934,324.35898
770.40295,798.60803,796.99634,552.4176
832.4542,795.38464,800.6227,1090.3297
820.7692,794.57874,806.26373,1093.1501
776.04395,792.1612,800.2198,764.7619
730.10986,788.5348,790.9524,343.2967
743.4066,790.14655,798.20514,487.14285
808.68134,798.20514,811.0989,1052.4542
774.43225,798.20514,793.36993,819.5604
821.978,801.4286,807.47253,1139.0842
713.9927,796.99634,787.72894,346.11722
734.1392,793.7729,803.8461,473.84616
809.0842,792.5641,813.5165,1026.2638
815.5311,794.9817,815.12823,1122.5641
774.0293,794.57874,811.0989,888.46155
722.0513,796.1905,799.81683,435.9707
720.84247,801.02563,802.23444,410.5861
790.54944,801.4286,815.9341,954.94507
782.0879,799.81683,797.3993,913.44324
722.4542,789.7436,788.1319,452.49084
711.1722,792.1612,790.14655,360.2198
782.49084,804.65204,803.0403,875.56775
815.9341,801.4286,806.6667,1140.2931
801.4286,796.99634,805.4579,977.1062
752.27106,798.60803,792.1612,541.53845
813.5165,800.6227,810.696,1142.7106
728.0952,801.4286,794.17584,334.43222
786.52014,806.6667,813.5165,805.05493
826.4103,806.6667,813.1135,1149.1575
803.8461,797.8022,801.8315,1022.23444
744.61536,798.60803,793.36993,579.81683
705.12823,802.23444,790.54944,297.36264
765.16486,803.44324,796.99634,739.3773
821.1722,803.44324,807.47253,1143.5165
805.8608,805.4579,806.26373,1047.2161
741.79486,801.4286,790.14655,643.0769
682.5641,799.81683,786.9231,257.87546
737.3626,803.44324,803.0403,647.50916
802.23444,801.4286,808.68134,1122.1611
799.41394,802.6374,813.1135,1062.1245
750.2564,799.41394,806.26373,694.65204
696.26373,793.7729,788.1319,319.5238
808.2784,807.8755,807.8755,1091.5385
745.82416,801.8315,795.78754,611.6484
768.7912,800.2198,790.14655,798.20514
713.1868,800.6227,788.93774,356.99634
791.75824,799.011,797.8022,1083.4799
716.8132,792.1612,803.44324,507.69232
790.14655,790.14655,817.1429,1048.8279
808.68134,793.36993,815.12823,1135.4579
772.4176,793.36993,802.6374,830.4396
706.337,793.7729,795.78754,334.43222
710.7692,799.81683,803.8461,445.2381
782.8938,804.2491,805.8608,1003.2967
790.9524,800.6227,809.89014,1096.7766
708.3516,795.78754,790.9524,416.2271
760.32965,795.78754,808.2784,855.42126
722.4542,798.20514,802.6374,402.12454
795.78754,800.6227,815.5311,947.6923
814.3223,803.0403,812.71063,1143.9194
797.3993,797.8022,813.1135,926.337
738.97437,792.5641,806.6667,440.0
733.73627,798.20514,807.47253,330.40292
822.381,807.47253,815.9341,920.696
842.52747,805.4579,812.3077,1174.1392
809.89014,801.4286,807.0696,951.31866
755.4945,799.81683,807.0696,509.70697
724.4689,797.3993,805.4579,332.01465
786.9231,801.8315,815.9341,830.4396
826.0073,803.8461,820.3663,1175.751
803.8461,798.20514,811.0989,1032.7106
748.6447,791.3553,790.14655,605.2015
706.337,788.1319,783.69965,325.56778
769.59705,792.96704,807.0696,767.98535
824.3956,800.2198,819.9634,1153.1868
802.6374,798.60803,816.337,1023.8461
741.39197,792.1612,799.41394,593.91943
709.5604,798.60803,793.7729,286.88644
786.1172,806.6667,803.0403,698.2784
842.9304,808.2784,810.293,1141.5018
820.7692,807.0696,809.4872,1095.9707
772.8205,803.0403,804.65204,726.4835
711.978,800.2198,800.2198,312.67398
743.4066,797.8022,802.6374,617.28937
808.68134,800.6227,812.3077,1113.6996
803.8461,807.8755,812.3077,1096.3737
759.12085,805.4579,809.89014,769.59705
693.8461,794.9817,800.2198,314.68866
717.619,792.96704,804.2491,501.64835
714.7985,793.36993,792.5641,394.46887
734.1392,803.8461,804.2491,504.46887
807.8755,798.60803,814.7253,1116.1172
815.12823,804.2491,818.3516,1046.0073
801.8315,794.57874,813.1135,1081.0623
762.3443,796.99634,804.65204,814.3223
834.0659,793.36993,821.978,1143.9194
786.52014,787.326,813.91943,843.3333
727.6923,788.93774,792.1612,376.73993
743.8095,799.41394,791.3553,423.88278
811.50183,806.26373,803.44324,970.65936
828.4249,807.8755,805.05493,1158.4249
789.7436,800.2198,800.6227,925.9341
722.4542,790.14655,798.60803,443.62637
715.6044,788.93774,803.8461,389.6337
776.04395,789.34064,807.8755,906.99634
804.2491,799.81683,816.337,1103.2234
790.9524,809.0842,807.47253,946.4835
735.7509,803.44324,788.1319,497.61905
703.5165,796.1905,790.54944,322.74725
765.16486,793.7729,803.8461,859.45056
796.5934,786.1172,809.89014,1142.3077
770.80585,782.0879,813.1135,981.53845
730.5128,790.54944,808.68134,585.8608
705.12823,799.41394,797.3993,300.18314
764.7619,803.8461,795.38464,756.30035
817.1429,805.4579,799.81683,1133.0403
790.9524,800.2198,806.26373,984.35895
749.85345,799.81683,805.4579,609.2308
714.3956,792.5641,801.02563,313.47986
747.8388,785.7143,807.8755,685.38464
819.15753,793.7729,807.8755,1137.0696
820.3663,799.81683,798.60803,1074.2124
758.315,796.1905,785.7143,681.75824
717.619,796.1905,788.1319,323.15018
774.0293,799.41394,809.0842,618.9011
828.8278,796.99634,817.1429,1080.6593
811.0989,798.20514,812.71063,1081.4652
770.40295,803.8461,805.8608,753.8828
720.0366,800.2198,792.5641,349.7436
749.0476,801.4286,797.8022,551.2088
824.7985,803.44324,811.0989,1056.8865
834.87177,799.81683,813.1135,1123.37
781.28204,790.9524,803.8461,814.3223
714.3956,787.326,790.9524,350.54944
743.00366,799.81683,798.20514,483.51648
819.15753,806.6667,804.2491,1023.0403
819.9634,805.8608,808.68134,1129.414
772.8205,801.4286,805.8608,805.4579
721.2454,794.9817,793.36993,361.42856
731.7216,794.9817,800.6227,416.63004
806.26373,793.7729,810.293,960.18317
836.08057,800.6227,809.0842,1156.8132
805.4579,803.44324,801.4286,911.4286
737.3626,802.23444,794.17584,449.2674
727.28937,799.41394,803.0403,378.35165
801.02563,790.9524,813.5165,904.17584
832.4542,792.96704,809.89014,1160.8425
806.6667,796.5934,806.26373,975.09155
746.63007,795.38464,794.9817,488.35165
725.6777,797.3993,795.78754,314.68866
797.8022,803.0403,815.9341,844.1392
834.0659,805.05493,813.1135,1129.414
809.89014,801.8315,811.0989,996.4469
759.5238,801.4286,807.0696,592.71063
728.9011,799.81683,796.5934,315.09158
793.7729,803.0403,805.8608,793.36993
834.0659,801.4286,809.89014,1151.1721
800.6227,801.8315,807.0696,989.19415
746.63007,806.6667,801.8315,632.1978
711.1722,804.2491,801.8315,322.74725
766.77655,809.4872,815.9341,695.4579
822.7839,810.696,824.7985,1139.0842
814.7253,811.9048,819.9634,1057.2894
778.0586,809.89014,802.6374,659.59705
743.8095,810.696,806.6667,336.4469
788.93774,817.5458,822.381,640.65936
826.0073,800.2198,816.7399,1103.6263
771.6117,798.20514,805.8608,773.22345
738.5714,804.65204,798.20514,352.56412
784.5055,810.293,806.6667,563.69965
842.52747,810.293,820.7692,1087.5092
842.52747,809.4872,815.12823,1052.0513
847.76556,811.0989,820.7692,1089.1208
795.38464,804.65204,811.0989,780.87915
722.8571,802.23444,802.6374,340.4762
751.4652,811.50183,813.1135,486.337
830.4396,817.9487,817.5458,1014.57874
837.28937,823.9927,815.12823,1116.9231
799.011,818.7546,805.8608,875.56775
730.10986,803.8461,794.17584,373.9194
726.4835,801.4286,803.8461,386.00732
803.8461,806.26373,819.9634,987.98535
818.7546,801.8315,809.89014,1110.4762
797.8022,803.44324,795.78754,875.56775
752.27106,813.1135,790.9524,458.5348
730.9158,821.1722,792.5641,367.47253
813.5165,819.5604,809.89014,900.9524
847.3626,809.0842,821.1722,1114.9084
799.81683,797.8022,813.5165,888.46155
744.21246,798.20514,803.8461,467.39926
740.989,802.23444,799.011,344.90842
825.6044,801.02563,804.2491,876.77655
857.4359,806.6667,808.68134,1167.6923
821.5751,813.91943,807.0696,982.74725
769.19415,801.8315,799.81683,535.09155
753.47986,790.54944,799.011,270.76923
838.49817,795.78754,817.1429,783.69965
888.0586,801.4286,826.8132,1172.5275
857.4359,807.0696,815.5311,1017.3993
805.8608,808.2784,801.02563,628.97437
752.674,800.2198,792.96704,301.39194
800.2198,794.57874,801.8315,695.4579
863.8828,794.17584,812.3077,1131.8315
842.1245,791.3553,811.50183,1033.5165
785.7143,794.57874,803.44324,657.98535
745.42126,801.4286,799.81683,316.7033
785.7143,805.4579,800.2198,629.7802
840.9158,810.293,807.0696,1087.9121
833.663,803.0403,813.1135,1073.0037
780.4762,788.5348,806.26373,729.304
729.304,787.72894,800.6227,323.15018
777.6557,790.9524,804.2491,562.8938
858.6447,797.8022,813.5165,1097.9854
851.79486,806.26373,809.4872,1148.7546
796.99634,805.05493,796.5934,812.71063
733.3333,799.41394,790.54944,346.92307
748.24176,791.3553,796.99634,499.23077
819.5604,786.1172,812.3077,1033.9194
840.10986,794.57874,817.1429,1104.0293
810.293,800.6227,808.2784,831.2454
750.65936,793.7729,789.34064,391.64835
757.50916,797.3993,790.14655,455.7143
829.2308,803.0403,803.44324,1006.52014
837.28937,796.5934,807.8755,1129.414
801.02563,790.9524,808.68134,892.8938
744.21246,794.17584,800.2198,441.2088
734.94507,795.38464,797.8022,369.48718
805.8608,799.41394,805.4579,920.696
825.2015,801.4286,804.2491,1139.0842
778.0586,791.3553,793.36993,909.41394
724.87177,786.52014,792.1612,466.5934
720.0366,792.96704,805.8608,341.28204
783.69965,794.57874,812.3077,867.1062
815.9341,794.57874,805.05493,1139.0842
800.6227,801.02563,794.17584,982.3443
751.4652,797.3993,787.72894,560.07324
710.3663,789.7436,789.34064,291.72162
771.6117,794.9817,805.4579,756.7033
832.4542,797.3993,809.89014,1159.2307
809.4872,790.9524,796.99634,1019.011
753.8828,788.1319,786.52014,577.8022
722.0513,793.36993,791.3553,282.85715
770.40295,798.60803,809.89014,695.4579
827.619,801.02563,811.9048,1100.8059
818.7546,800.2198,801.02563,1066.5568
778.46155,800.6227,795.38464,695.4579
739.7802,799.41394,794.17584,307.03296
777.6557,796.99634,801.8315,639.85345
845.34796,797.3993,808.2784,1127.8022
828.8278,799.81683,808.2784,1108.8645
767.98535,795.38464,796.99634,734.94507
716.8132,787.72894,791.3553,298.57144
745.42126,788.5348,806.26373,572.1612
807.47253,793.7729,812.3077,1110.0732
813.1135,795.78754,804.2491,1130.6227
774.83514,800.2198,797.8022,826.4103
716.0073,798.60803,794.17584,387.21613
749.85345,802.23444,803.44324,531.8681
815.9341,807.8755,811.9048,1044.3956
824.7985,800.6227,801.02563,1120.5494
794.57874,794.17584,796.1905,888.86444
739.7802,796.99634,792.5641,438.7912
751.06226,802.6374,786.52014,463.36996
814.3223,801.8315,794.9817,1000.87915
832.0513,792.96704,803.0403,1163.2601
805.4579,791.75824,801.8315,913.0403
740.58606,786.52014,789.7436,430.32968
746.63007,791.3553,794.57874,426.30035
830.4396,805.05493,809.4872,979.92676
844.1392,808.2784,807.0696,1174.5421
795.78754,802.23444,797.8022,946.08057
733.3333,800.2198,790.54944,483.51648
724.87177,795.78754,799.41394,367.0696
799.41394,793.36993,809.89014,900.54944
832.8571,793.7729,810.293,1160.0366
806.26373,790.9524,801.02563,969.0476
757.50916,797.3993,786.52014,524.21246
735.7509,805.8608,796.1905,348.93774
790.14655,801.8315,820.3663,842.52747
827.2161,791.75824,816.7399,1137.8755
807.0696,792.5641,807.47253,1011.3553
749.45056,791.3553,792.5641,624.94507
719.6337,794.17584,788.1319,324.35898
780.4762,803.8461,810.696,734.1392
832.8571,803.8461,818.7546,1150.7693
808.2784,795.78754,809.0842,1063.7362
757.50916,785.7143,800.6227,670.4762
713.1868,780.07324,790.54944,302.1978
760.32965,790.9524,803.44324,637.4359
824.7985,802.23444,805.05493,1074.2124
818.3516,803.44324,796.99634,1069.7803
774.43225,802.6374,796.1905,736.9597
727.6923,796.99634,803.44324,309.0476
768.7912,792.96704,814.3223,578.60803
830.4396,795.38464,813.5165,1063.7362
829.6337,803.44324,807.47253,1099.597
788.93774,804.65204,801.8315,781.685
736.55676,801.8315,797.3993,334.83517
759.5238,799.011,803.0403,516.55676
831.2454,799.41394,810.696,1042.7839
833.663,800.2198,812.3077,1110.8792
791.75824,793.36993,804.65204,844.94507
747.4359,796.1905,796.5934,375.93405
763.1502,811.50183,802.23444,452.49084
830.0366,814.3223,808.2784,1025.8608
827.619,810.293,808.68134,1145.5311
784.10254,802.23444,804.65204,868.315
727.28937,790.14655,792.1612,381.97803
729.707,790.54944,798.60803,371.50183
813.91943,800.6227,807.8755,962.6007
833.2601,807.8755,799.41394,1183.0037
788.93774,805.8608,797.3993,948.0952
726.08057,796.1905,785.7143,433.95605
719.2308,791.75824,789.7436,319.5238
799.011,796.5934,817.1429,888.0586
835.6777,803.0403,814.7253,1122.1611
807.0696,799.41394,796.1905,958.5714
750.65936,795.78754,788.1319,545.16486
792.96704,808.68134,812.3077,826.4103
825.6044,804.65204,815.12823,1152.381
794.17584,796.1905,812.3077,992.01465
721.6484,800.6227,794.17584,334.0293
750.2564,791.3553,807.0696,589.89014
707.5458,793.7729,789.34064,292.12454
832.4542,809.4872,805.4579,1115.3114
806.6667,806.6667,798.20514,1016.5934
769.59705,804.2491,795.38464,723.663
760.32965,803.8461,794.57874,661.2088
715.6044,796.5934,797.3993,296.55676
759.5238,792.96704,809.89014,660.0
840.10986,799.41394,811.0989,1156.8132
824.7985,804.2491,803.8461,1104.0293
772.4176,807.0696,799.41394,739.7802
731.7216,805.8608,790.9524,338.0586
757.50916,809.0842,802.23444,582.23444
814.3223,810.293,815.5311,1083.0769
811.9048,799.011,813.5165,1107.6556
775.2381,799.41394,809.0842,800.6227
722.4542,796.1905,801.4286,367.87546
747.4359,796.5934,803.44324,533.0769
820.3663,798.60803,809.4872,1055.6776
817.9487,799.41394,816.337,1130.6227
770.80585,801.8315,802.23444,823.1868
727.6923,803.44324,787.326,378.75458
741.39197,801.02563,799.41394,466.5934
815.12823,803.44324,807.47253,1027.0696
842.52747,807.8755,807.47253,1178.5714
806.6667,801.02563,801.02563,891.28204
744.61536,796.1905,794.9817,388.4249
739.3773,795.38464,805.8608,385.6044
807.47253,795.78754,814.7253,956.1539
836.8865,802.6374,810.293,1147.9487
804.2491,803.0403,803.44324,955.7509
741.79486,800.2198,788.93774,496.8132
728.0952,802.6374,793.36993,361.42856
794.57874,796.1905,807.8755,881.2088
841.31866,793.36993,813.5165,1139.8901
813.91943,791.3553,807.8755,941.6484
760.32965,790.9524,794.9817,543.1502
739.3773,796.5934,799.81683,360.2198
797.3993,799.011,815.5311,852.1978
836.4835,802.23444,819.5604,1167.6923
803.44324,799.81683,812.71063,972.674
750.65936,799.41394,796.99634,578.60803
722.8571,796.1905,791.3553,283.663
778.0586,793.7729,805.4579,751.8681
829.2308,796.99634,808.2784,1176.1538
817.1429,802.23444,808.68134,1041.1721
772.8205,802.6374,807.0696,675.7143
721.6484,799.81683,801.4286,300.5861
763.1502,801.4286,818.7546,631.79486
831.2454,800.6227,817.9487,1102.4176
817.1429,802.23444,804.2491,1039.9634
764.35895,801.8315,799.81683,714.7985
720.4396,801.4286,794.9817,310.65933
760.7326,805.4579,806.26373,593.91943
831.2454,809.89014,818.7546,1133.4432
827.619,807.0696,819.5604,1106.4469
778.0586,797.8022,804.65204,775.64105
732.52747,796.1905,797.8022,342.89377
760.7326,799.011,811.9048,504.8718
825.2015,807.0696,816.337,1039.5604
820.3663,805.4579,808.68134,1080.6593
769.59705,791.75824,804.2491,808.2784
717.619,790.9524,804.2491,363.44324
747.4359,801.02563,814.3223,446.4469
825.6044,809.4872,819.15753,1025.4579
836.4835,806.26373,818.3516,1127.8022
799.011,798.20514,809.4872,851.79486
740.58606,798.20514,792.5641,393.26007
752.27106,799.41394,802.6374,381.5751
825.6044,798.60803,816.337,939.6337
838.49817,796.99634,816.337,1149.1575
809.0842,803.44324,817.5458,945.2747
745.42126,806.6667,806.26373,482.71063
731.7216,802.6374,809.0842,357.39926
794.17584,800.6227,817.5458,864.68866
803.8461,800.2198,811.9048,1132.2344
790.9524,798.60803,809.89014,963.4066
763.95605,797.8022,801.4286,513.3333
747.03296,800.2198,803.8461,331.2088
815.12823,810.696,819.5604,855.42126
844.1392,812.71063,814.7253,1175.751
811.50183,807.47253,811.50183,995.64105
754.68866,807.0696,803.44324,588.2784
720.0366,802.23444,798.20514,313.07693
775.2381,799.011,812.71063,747.03296
831.2454,807.47253,815.12823,1161.6483
814.7253,809.0842,807.0696,1026.6666
761.53845,804.65204,799.81683,665.64105
717.2161,804.65204,802.6374,341.68497
765.16486,806.26373,819.15753,689.81683
831.2454,803.44324,820.3663,1105.641
822.7839,799.41394,816.337,1059.3041
734.94507,803.44324,797.8022,295.348
778.0586,798.60803,805.05493,728.9011
774.0293,811.0989,809.4872,595.9341
834.4689,811.50183,812.3077,1125.7876
830.4396,806.6667,806.26373,1110.0732
785.31134,797.8022,799.011,786.9231
733.3333,796.5934,788.1319,355.3846
764.7619,802.23444,799.81683,547.98535
825.2015,806.26373,818.3516,1094.359
826.8132,808.68134,815.12823,1118.9377
786.9231,806.26373,802.23444,815.12823
729.707,799.41394,790.9524,346.11722
749.0476,803.8461,798.20514,426.7033
820.3663,810.293,807.0696,1021.8315
838.0952,809.89014,808.68134,1141.9048
818.3516,813.5165,802.23444,888.46155
750.65936,813.5165,792.1612,426.30035
735.7509,811.50183,798.20514,408.97437
816.337,809.0842,812.71063,988.3883
848.97437,809.4872,814.7253,1152.7839
821.1722,810.293,808.2784,886.8498
767.1795,807.47253,801.4286,469.4139
751.06226,813.1135,793.36993,375.1282
812.71063,816.7399,796.99634,895.31134
838.49817,817.1429,802.6374,1164.4689
798.60803,812.71063,802.6374,953.73627
749.0476,803.0403,788.5348,500.03662
740.989,804.2491,790.9524,321.53845
818.3516,809.4872,813.5165,826.4103
858.24176,809.89014,819.9634,1164.0659
825.2015,809.89014,815.5311,983.1502
760.32965,809.4872,807.8755,552.8205
723.2601,812.3077,806.26373,309.0476
792.96704,819.9634,823.5897,767.5824
840.5128,822.7839,829.2308,1146.7399
819.5604,821.5751,819.9634,1007.326
778.0586,823.1868,813.91943,633.8095
733.73627,827.2161,805.05493,294.94507
781.685,832.0513,811.50183,676.9231
834.4689,832.4542,818.3516,1133.0403
808.68134,824.3956,813.5165,1052.8572
762.74725,813.1135,805.4579,700.696
724.0659,814.3223,799.81683,325.16483
759.5238,820.7692,808.68134,621.31866
814.3223,825.6044,821.978,1089.5238
813.91943,828.8278,822.7839,1056.0806
774.83514,824.3956,809.4872,740.989
718.4249,823.9927,794.17584,308.64468
766.77655,831.6484,804.65204,510.1099
857.8388,832.0513,813.1135,1054.4689
846.9597,826.4103,808.2784,1120.5494
791.75824,823.9927,808.2784,840.5128
732.52747,824.3956,807.47253,362.23444
735.34796,814.7253,809.0842,433.5531
819.15753,815.9341,819.9634,1010.54944
829.6337,826.8132,817.5458,1146.337
780.07324,821.978,801.02563,875.56775
732.52747,816.337,791.3553,378.35165
748.24176,826.4103,800.6227,399.70697
817.5458,835.2747,811.50183,967.4359
824.3956,828.8278,807.0696,1129.011
784.5055,819.5604,794.57874,887.6557
736.55676,828.8278,792.1612,356.1905
735.7509,820.7692,786.52014,422.27106
809.4872,832.0513,804.2491,922.3077
833.663,834.0659,813.1135,1164.8718
800.2198,840.9158,810.696,946.8865
743.00366,838.0952,799.41394,479.8901
721.6484,832.4542,799.81683,297.36264
795.38464,838.49817,815.9341,812.3077
839.304,839.707,817.9487,1143.1135
729.304,838.9011,796.99634,290.1099
765.56775,835.6777,801.4286,555.2381
789.7436,839.304,808.68134,759.5238
837.6923,839.707,817.5458,1139.8901
804.65204,836.8865,813.5165,998.0586
752.674,835.2747,800.6227,613.2601
724.4689,835.2747,792.5641,315.89743
821.978,838.0952,807.8755,1094.762
772.01465,835.2747,802.23444,678.1319
807.8755,835.2747,804.2491,1038.3517
814.3223,833.663,807.8755,994.83514
752.674,834.4689,792.96704,647.9121
706.7399,839.304,787.326,268.35165
760.32965,843.73627,799.011,614.4689
835.6777,846.1539,806.26373,1105.641
821.978,842.52747,805.05493,1058.9011
773.6264,838.9011,795.78754,729.304
712.7839,833.663,787.72894,303.8095
739.7802,831.2454,797.3993,491.17215
817.5458,832.4542,801.4286,979.5238
819.5604,835.6777,792.96704,1026.2638
780.07324,840.10986,790.54944,791.75824
740.989,847.76556,792.5641,346.11722
767.1795,849.3773,795.38464,463.7729
824.3956,843.73627,803.44324,1010.9524
823.9927,840.9158,813.91943,1114.5055
789.34064,836.08057,805.05493,857.4359
743.8095,833.2601,786.52014,391.64835
744.61536,836.4835,790.14655,406.55676
809.0842,838.9011,801.8315,941.2454
828.022,836.08057,801.02563,1128.2051
785.7143,828.022,795.78754,898.5348
725.6777,824.3956,791.75824,404.1392
715.2015,826.0073,793.7729,315.89743
790.54944,830.84247,803.0403,919.89014
823.1868,837.28937,811.0989,1152.7839
784.90845,839.304,798.20514,888.86444
724.0659,837.28937,789.34064,440.40292
711.978,836.8865,799.011,284.06595
781.28204,836.8865,803.44324,791.75824
819.15753,834.4689,801.4286,1126.9963
790.9524,826.8132,802.6374,1004.90845
741.79486,827.619,800.2198,552.4176
728.0952,834.87177,797.8022,320.7326
788.1319,840.10986,807.0696,800.6227
819.5604,838.0952,808.68134,1143.5165
795.38464,834.4689,797.3993,1000.07324
743.00366,831.6484,790.14655,569.34064
776.04395,830.4396,796.99634,717.2161
819.5604,835.2747,804.2491,1140.2931
809.0842,834.87177,807.47253,1073.4066
718.8278,825.2015,787.326,278.02197
718.4249,830.84247,787.326,286.88644
766.77655,834.87177,796.1905,603.5897
762.3443,834.0659,798.60803,689.011
831.2454,838.0952,802.23444,1104.8352
835.6777,838.49817,802.23444,1104.4323
745.0183,842.9304,802.6374,354.1758
788.93774,837.6923,799.81683,767.1795
763.5531,841.31866,810.293,552.8205
815.12823,836.08057,810.696,1058.4982
815.12823,836.4835,803.0403,1108.4615
777.6557,836.08057,793.7729,785.31134
722.8571,826.4103,783.2967,319.12088
749.45056,832.8571,786.52014,461.35532
822.7839,842.9304,803.44324,1041.5751
816.337,839.707,805.4579,1135.4579
769.59705,836.4835,796.5934,838.0952
714.7985,832.8571,786.52014,373.9194
720.0366,826.8132,786.9231,409.3773
808.68134,835.2747,801.4286,981.13556
836.8865,840.10986,796.99634,1125.7876
793.36993,833.663,783.69965,891.685
732.9304,832.4542,778.86444,411.39194
718.8278,834.4689,788.1319,340.07327
788.93774,834.0659,802.6374,911.8315
819.15753,835.2747,796.1905,1148.3517
786.52014,830.84247,784.10254,902.1612
738.1685,827.619,777.6557,456.52014
716.4103,835.2747,773.6264,321.13553
776.4469,837.6923,786.1172,838.9011
815.12823,832.0513,793.36993,1153.9927
791.75824,831.2454,784.5055,1001.685
731.7216,826.8132,774.0293,554.43225
697.47253,819.15753,773.22345,255.05495
775.2381,827.619,785.31134,740.18317
834.87177,837.28937,793.7729,1134.249
819.15753,841.31866,793.36993,1033.9194
770.40295,842.1245,785.31134,629.7802
728.9011,838.9011,774.83514,288.49817
777.25275,837.28937,781.685,726.8865
830.4396,834.0659,792.1612,1126.5934
820.7692,832.4542,792.96704,1046.4103
767.1795,828.4249,781.28204,673.2967
717.619,830.4396,777.25275,252.23444
771.6117,838.49817,795.38464,620.9158
832.0513,840.10986,799.011,1105.641
826.4103,840.5128,790.9524,1043.5897
723.2601,831.2454,776.4469,325.16483
782.49084,835.2747,788.1319,743.8095
764.35895,835.6777,785.7143,526.63007
828.4249,834.4689,797.8022,1070.989
759.12085,826.4103,776.04395,748.24176
712.381,827.2161,765.9707,284.46887
806.6667,827.2161,783.69965,1081.4652
741.39197,828.022,772.01465,465.78754
827.619,828.8278,794.17584,1054.0659
843.73627,827.2161,795.78754,1131.0256
785.31134,818.3516,782.8938,829.6337
720.4396,817.9487,771.6117,338.86447
739.7802,828.022,778.86444,404.5421
816.337,827.619,792.1612,975.4945
834.4689,826.4103,786.9231,1112.4908
803.44324,824.3956,779.2674,898.1319
753.47986,813.5165,772.4176,443.62637
751.06226,809.4872,780.4762,354.57877
822.7839,816.7399,794.17584,888.46155
846.55676,819.9634,789.34064,1140.6959
807.0696,819.9634,776.04395,948.0952
756.30035,815.9341,761.13556,486.337
760.7326,820.3663,767.1795,317.50916
834.4689,827.2161,786.9231,833.663
862.27106,819.15753,788.1319,1155.6044
765.16486,812.71063,776.04395,518.1685
832.0513,814.7253,787.72894,985.9707
727.28937,808.68134,763.5531,273.58975
797.8022,811.0989,778.46155,778.0586
860.2564,815.5311,782.8938,1154.3956
841.31866,813.91943,778.0586,1031.0989
779.2674,811.50183,773.6264,596.7399
735.34796,816.337,776.04395,271.97803
791.75824,818.3516,786.9231,705.5311
858.6447,823.5897,792.1612,1197.9121
845.34796,827.2161,786.9231,1157.2161
777.25275,818.3516,775.2381,776.04395
743.00366,815.9341,768.7912,403.33334
816.337,821.5751,786.1172,821.1722
863.47986,825.6044,797.3993,1284.1392
832.4542,822.7839,789.34064,1206.3737
768.3883,819.9634,779.67035,858.6447
726.4835,819.5604,771.2088,457.72894
770.80585,822.381,778.0586,709.15753
836.4835,824.7985,788.5348,1209.1941
845.34796,821.978,788.5348,1233.37
802.6374,817.9487,788.5348,905.78754
740.989,817.5458,777.25275,448.46155
766.77655,822.381,774.0293,616.08057
837.28937,821.978,785.31134,1164.8718
836.08057,814.3223,783.69965,1242.6373
715.6044,799.81683,770.0,444.83517
782.49084,803.8461,770.0,943.2601
722.0513,805.05493,783.2967,498.82785
795.78754,809.4872,793.36993,1086.3004
815.9341,812.71063,788.1319,1237.3993
782.8938,814.3223,778.0586,981.13556
728.49817,807.8755,772.8205,528.6447
729.304,807.0696,782.0879,491.5751
801.8315,812.3077,796.5934,996.8498
828.8278,812.3077,790.54944,1241.8315
782.8938,808.2784,781.28204,1034.3224
724.87177,812.71063,776.04395,529.0476
721.6484,814.7253,774.43225,415.8242
787.326,812.3077,788.93774,980.32965
806.26373,806.6667,789.34064,1223.6996
782.8938,807.8755,778.86444,1019.81683
737.76556,815.12823,776.8498,584.2491
705.5311,817.5458,777.25275,352.56412
773.22345,818.7546,787.326,862.27106
817.1429,816.7399,790.54944,1198.7179
798.60803,819.15753,785.31134,1067.7656
749.85345,820.7692,776.04395,666.8498
703.91943,815.5311,769.19415,343.2967
755.89746,816.337,784.10254,759.12085
791.75824,813.5165,792.96704,1066.9597
809.4872,815.9341,795.78754,1193.0769
742.1978,812.71063,780.4762,682.5641
700.696,815.5311,776.4469,352.16116
754.2857,819.15753,787.72894,690.2198
814.3223,816.7399,790.14655,1145.9341
805.8608,817.1429,785.7143,1121.7583
705.9341,809.0842,775.2381,356.1905
764.7619,815.12823,781.28204,784.90845
741.79486,808.2784,781.685,603.5897
817.9487,811.0989,798.20514,1124.1758
818.7546,813.91943,801.8315,1149.9634
777.6557,813.1135,787.72894,822.7839
712.7839,805.4579,774.43225,375.1282
732.1245,804.65204,782.8938,534.68866
809.89014,804.2491,799.81683,1069.3773
818.3516,801.8315,801.02563,1149.5604
795.78754,806.26373,794.17584,904.57874
737.76556,805.05493,780.87915,439.19415
739.7802,803.0403,782.0879,453.69965
817.5458,804.65204,801.02563,1005.7143
827.619,805.05493,802.23444,1143.5165
784.10254,800.6227,788.5348,890.87915
728.9011,800.6227,782.8938,444.0293
724.4689,805.05493,782.0879,439.59708
791.3553,805.05493,786.9231,970.2564
820.7692,802.6374,789.34064,1171.7216
780.87915,799.41394,791.3553,940.0366
712.381,794.57874,788.1319,450.4762
699.0842,793.7729,787.72894,318.31503
788.1319,802.23444,800.6227,853.4066
841.7216,808.2784,805.05493,1193.8828
801.02563,809.89014,795.78754,1025.4579
738.1685,805.05493,772.8205,553.22345
721.6484,803.44324,775.64105,331.61172
783.69965,805.05493,796.99634,830.0366
822.381,801.02563,794.9817,1180.989
796.1905,796.5934,787.326,1021.8315
749.45056,799.011,781.685,599.5604
717.619,808.2784,781.28204,290.51282
769.19415,813.5165,796.99634,738.97437
818.3516,807.0696,803.8461,1173.3334
800.2198,799.81683,791.75824,1045.6044
756.30035,794.9817,781.685,662.4176
722.0513,796.1905,782.49084,333.22345
770.80585,805.8608,789.7436,676.1172
839.707,817.1429,794.9817,1116.9231
831.2454,815.12823,794.57874,1109.6703
774.0293,803.0403,788.93774,773.22345
718.4249,796.99634,778.86444,335.64102
757.50916,800.2198,782.0879,570.54944
832.8571,807.0696,795.38464,1107.2528
838.49817,815.12823,796.99634,1136.6666
793.7729,815.5311,788.1319,815.12823
734.1392,806.26373,780.87915,334.83517
749.0476,804.2491,793.7729,441.61172
826.4103,803.8461,802.6374,1061.3187
831.2454,792.96704,788.93774,1161.2454
781.685,791.3553,780.07324,802.6374
735.34796,799.011,774.0293,410.989
755.09155,799.81683,779.2674,516.9597
815.5311,805.4579,800.6227,1009.7436
812.71063,803.44324,797.3993,1144.7252
767.1795,795.38464,784.90845,899.34064
709.15753,788.1319,773.6264,416.2271
720.84247,792.96704,778.0586,367.0696
806.6667,801.4286,799.011,914.2491
822.7839,801.4286,799.41394,1168.0952
776.4469,801.02563,791.3553,945.6777
709.5604,794.17584,780.07324,450.07327
713.1868,790.9524,778.46155,344.90842
798.20514,794.57874,792.1612,927.9487
837.28937,797.8022,798.60803,1203.1501
812.3077,797.8022,793.7729,981.53845
745.0183,794.57874,777.25275,528.24176
724.0659,800.6227,774.43225,293.33334
781.685,802.6374,789.7436,794.9817
811.9048,799.81683,791.75824,1162.0513
794.17584,798.60803,791.75824,1005.31134
738.97437,798.60803,788.5348,585.05493
696.26373,801.4286,782.0879,276.8132
757.9121,802.6374,792.96704,705.5311
802.23444,801.4286,794.9817,1117.7289
761.9414,798.60803,787.326,1003.2967
720.84247,793.36993,786.52014,599.5604
686.1905,786.52014,781.685,276.8132
736.55676,793.36993,787.72894,633.00366
813.91943,802.6374,797.8022,1108.4615
805.8608,802.23444,790.14655,1104.0293
753.8828,803.0403,779.2674,747.8388
696.26373,796.99634,778.86444,318.31503
725.2747,797.8022,782.8938,563.69965
797.8022,803.0403,785.31134,1072.6007
803.0403,797.8022,789.34064,1087.9121
754.68866,794.57874,780.87915,729.304
706.7399,802.23444,771.2088,307.83884
743.8095,803.8461,784.90845,485.93405
807.0696,797.3993,791.75824,1018.60803
789.7436,793.36993,782.49084,1092.3444
750.65936,788.93774,782.49084,812.71063
709.5604,792.96704,781.28204,382.38095
738.97437,806.6667,780.4762,449.67032
801.8315,805.8608,788.93774,957.3626
798.60803,800.2198,789.34064,1102.0146
773.6264,797.8022,782.8938,855.0183
730.5128,789.34064,771.6117,404.5421
723.2601,792.1612,771.6117,396.48352
791.3553,804.65204,787.72894,934.7985
810.293,803.44324,790.14655,1105.641
762.74725,797.3993,778.46155,883.22345
726.08057,799.81683,774.43225,445.2381
732.1245,800.2198,787.72894,350.54944
777.25275,800.6227,797.8022,875.56775
796.99634,797.3993,794.9817,1116.5201
780.07324,794.17584,787.72894,928.7546
730.9158,798.60803,776.04395,459.7436
718.4249,807.47253,778.86444,302.1978
783.2967,809.0842,794.57874,819.5604
819.15753,803.44324,790.9524,1114.1025
800.6227,799.011,784.10254,989.59705
750.2564,791.75824,777.6557,579.011
723.663,796.5934,777.25275,297.76556
788.1319,807.47253,786.9231,735.34796
826.0073,805.4579,792.96704,1129.414
807.8755,797.8022,789.7436,1018.20514
763.1502,795.78754,771.6117,624.94507
721.6484,793.7729,764.35895,286.48352
767.98535,790.54944,779.67035,649.5238
824.7985,790.54944,786.1172,1120.5494
803.0403,785.7143,777.25275,1064.1392
737.3626,780.07324,767.98535,677.326
698.2784,785.31134,763.95605,280.43958
752.27106,785.31134,778.0586,592.3077
814.7253,785.31134,793.36993,1073.8096
806.6667,786.52014,791.3553,1066.5568
762.3443,783.2967,780.4762,737.3626
710.3663,783.2967,770.80585,295.75092
748.6447,788.93774,782.0879,495.20148
819.5604,789.7436,791.3553,1100.403
777.6557,786.9231,792.5641,793.7729
727.28937,789.7436,787.326,330.80585
753.8828,803.0403,788.93774,438.7912
822.7839,790.54944,794.57874,1051.2454
844.5421,810.293,804.2491,1054.4689
853.00366,804.2491,802.6374,1153.9927
790.14655,795.38464,782.49084,862.27106
714.7985,786.52014,766.77655,385.6044
726.08057,792.5641,774.83514,390.43958
816.337,799.011,787.326,960.989
823.9927,801.02563,783.69965,1140.2931
765.9707,797.8022,776.4469,910.2198
716.4103,789.34064,765.56775,429.92673
717.619,787.326,767.5824,350.9524
780.87915,788.1319,778.46155,917.0696
803.8461,786.9231,780.4762,1139.0842
765.16486,784.90845,780.4762,909.81683
726.08057,787.326,771.2088,465.3846
722.8571,791.3553,772.4176,313.47986
770.40295,796.5934,796.5934,788.93774
811.50183,798.20514,803.0403,1141.9048
800.6227,792.96704,786.9231,1012.1612
747.8388,795.38464,779.67035,566.52014
707.1429,795.38464,781.28204,300.5861
774.43225,791.3553,791.75824,737.3626
823.1868,791.75824,795.78754,1108.4615
783.69965,788.1319,785.31134,994.43225
734.5421,782.8938,774.83514,630.18317
727.28937,785.31134,778.46155,305.42123
793.36993,792.5641,790.9524,696.26373
829.2308,801.4286,790.54944,1137.4725
820.7692,805.8608,790.14655,1048.022
780.4762,802.23444,784.10254,668.86444
720.0366,793.36993,775.2381,278.4249
767.98535,791.3553,788.5348,595.12823
839.707,794.9817,797.3993,1093.5531
832.0513,794.17584,796.1905,1102.0146
797.3993,794.17584,793.36993,799.81683
743.8095,796.1905,788.1319,365.8608
755.89746,794.9817,799.011,546.77655
811.50183,795.78754,814.3223,1044.3956
817.1429,799.41394,823.5897,1080.2565
792.96704,797.3993,817.1429,832.8571
735.34796,792.96704,794.17584,398.09525
751.06226,798.20514,791.3553,490.3663
819.9634,801.8315,808.68134,1029.0842
815.9341,799.41394,805.4579,1126.1904
771.6117,797.8022,800.6227,839.707
740.18317,790.14655,797.3993,414.21246
827.2161,796.5934,805.8608,969.0476
718.4249,793.36993,797.8022,379.1575
809.4872,795.78754,801.02563,930.3663
764.7619,791.75824,785.31134,463.7729
838.0952,799.011,809.0842,1150.3663
750.2564,788.1319,793.7729,388.82785
823.5897,792.96704,810.696,942.0513
859.85345,800.2198,809.89014,1178.1685
757.9121,790.14655,788.1319,513.73627
824.3956,796.5934,804.2491,946.4835
734.5421,790.54944,786.1172,359.81686
805.8608,794.9817,814.7253,873.95605
845.7509,798.60803,820.7692,1168.0952
806.26373,791.3553,799.011,993.22345
723.663,777.6557,789.7436,306.63004
738.1685,778.0586,783.2967,548.7912
795.38464,786.1172,806.6667,797.8022
841.7216,784.90845,808.2784,1161.2454
809.89014,778.86444,803.0403,1025.0549
751.06226,781.28204,796.1905,647.50916
702.71063,783.2967,792.96704,286.0806
757.50916,786.1172,803.0403,649.5238
829.2308,790.14655,806.6667,1100.8059
817.9487,789.34064,803.44324,1057.6923
736.1539,796.5934,791.75824,321.9414
780.87915,795.78754,799.41394,622.9304
829.6337,786.9231,800.6227,1131.4286
845.34796,791.3553,803.44324,1122.1611
787.72894,782.8938,798.60803,772.8205
781.28204,793.7729,801.4286,723.2601
745.0183,782.8938,794.9817,351.35532
786.1172,796.1905,810.696,588.68134
853.4066,801.8315,816.337,1051.6483
840.5128,793.7729,805.4579,1088.3151
791.3553,788.5348,796.1905,822.7839
736.9597,787.72894,784.90845,361.02563
770.40295,795.38464,797.3993,478.27838
834.87177,796.99634,811.50183,1031.5018
831.2454,790.54944,807.8755,1150.7693
795.38464,791.3553,799.81683,881.2088
736.9597,794.17584,792.96704,393.26007
749.0476,798.60803,797.3993,394.8718
816.7399,803.44324,806.26373,948.0952
816.337,799.81683,797.3993,1125.3846
776.8498,793.7729,788.93774,870.7326
732.52747,797.3993,792.96704,412.1978
806.6667,801.4286,802.23444,907.8022
817.9487,798.60803,795.78754,924.3223
758.71796,797.8022,780.07324,516.55676
746.2271,795.78754,784.5055,356.99634
733.3333,804.65204,798.20514,335.2381
823.9927,793.36993,802.6374,879.19415
847.3626,793.36993,804.2491,1139.8901
840.9158,800.2198,801.02563,1131.8315
807.0696,784.90845,792.1612,964.61536
758.315,784.10254,782.49084,552.4176
733.73627,787.72894,782.8938,284.06595
799.81683,789.7436,794.57874,781.685
857.03296,793.7729,803.44324,1165.6776
766.3736,787.72894,786.9231,562.8938
733.73627,784.90845,785.31134,299.3773
786.52014,784.10254,802.23444,694.65204
858.24176,790.54944,807.47253,1121.3553
826.8132,791.75824,802.23444,986.3736
848.97437,793.7729,800.2198,1066.5568
779.67035,785.7143,791.75824,663.6264
731.7216,783.2967,793.7729,267.94873
783.2967,790.14655,805.8608,573.36993
838.49817,791.75824,807.0696,1025.0549
832.8571,790.9524,804.65204,1062.1245
802.6374,793.7729,805.4579,774.43225
744.21246,789.7436,796.1905,318.31503
767.1795,790.14655,800.6227,530.2564
845.7509,792.1612,814.3223,1031.0989
858.24176,788.5348,809.89014,1118.9377
820.7692,793.36993,803.44324,830.84247
753.8828,792.1612,793.7729,286.48352
775.64105,792.1612,794.9817,437.17947
835.2747,789.34064,810.696,1089.1208
838.0952,789.7436,819.9634,1177.7656
815.12823,790.14655,811.9048,855.0183
750.65936,785.7143,795.38464,379.96338
754.2857,790.54944,796.1905,393.663
842.1245,796.99634,807.47253,936.0073
857.03296,799.011,813.5165,1115.7142
818.3516,792.96704,810.696,875.16486
755.09155,785.31134,799.81683,397.69232
748.24176,790.14655,809.0842,356.5934
823.5897,798.20514,815.5311,925.9341
836.08057,799.41394,804.2491,1120.1465
802.6374,793.7729,796.99634,913.44324
745.82416,786.1172,789.34064,461.35532
730.10986,787.326,798.20514,263.11356
811.9048,791.3553,819.15753,837.6923
835.6777,788.5348,812.3077,1175.751
796.1905,789.34064,796.5934,940.84247
736.1539,791.3553,795.38464,295.348
801.4286,787.72894,803.44324,784.90845
842.9304,785.31134,811.50183,1152.7839
828.8278,784.90845,811.9048,1034.3224
775.2381,784.10254,792.1612,601.1722
750.2564,791.75824,790.14655,494.79852
792.5641,793.36993,798.60803,688.60803
838.49817,794.57874,803.44324,1116.1172
818.7546,787.326,805.05493,1027.8755
736.55676,788.1319,786.9231,261.50183
781.685,778.0586,804.2491,654.7619
741.39197,780.4762,795.38464,308.64468
777.25275,793.36993,799.41394,638.24176
832.4542,794.17584,801.4286,1096.3737
836.4835,794.17584,799.81683,1065.751
806.6667,797.8022,799.41394,733.3333
738.1685,788.5348,784.10254,291.3187
757.50916,778.86444,793.36993,530.2564
821.978,778.46155,809.0842,1049.2307
815.12823,780.4762,795.38464,1081.4652
794.9817,786.52014,785.31134,767.1795
752.27106,792.1612,780.07324,326.37363
751.8681,788.93774,784.90845,468.60806
808.68134,782.49084,798.60803,1000.07324
817.1429,774.83514,801.4286,1082.2711
775.2381,773.22345,796.1905,801.4286
728.0952,777.25275,784.5055,348.93774
766.77655,784.5055,790.9524,418.64468
842.9304,792.1612,804.65204,1025.8608
841.7216,794.9817,802.6374,1146.7399
792.96704,785.7143,801.4286,864.2857
736.1539,774.0293,792.96704,406.55676
742.1978,772.8205,791.75824,367.47253
825.2015,783.2967,806.6667,938.022
847.3626,791.3553,805.4579,1151.5751
815.12823,792.5641,798.60803,937.619
757.50916,791.75824,788.5348,482.30768
736.9597,787.72894,792.96704,352.96704
811.9048,788.93774,808.68134,906.1905
846.55676,790.14655,807.47253,1189.0476
817.5458,785.7143,798.60803,957.3626
750.2564,786.52014,790.14655,495.20148
714.3956,790.9524,795.38464,288.09525
784.5055,790.9524,805.8608,756.30035
819.5604,786.1172,809.0842,1120.9524
791.3553,787.326,816.337,1024.249
735.7509,781.28204,805.05493,608.4249
699.89014,779.2674,789.7436,292.52747
767.5824,796.99634,804.2491,735.34796
829.6337,806.26373,808.2784,1113.2968
815.5311,800.2198,797.3993,1023.0403
775.64105,792.1612,787.326,673.2967
734.1392,783.69965,784.90845,287.28937
782.49084,785.7143,803.44324,672.0879
848.5714,789.7436,811.0989,1153.1868
832.4542,790.54944,803.44324,1100.0
771.2088,790.54944,793.7729,742.1978
716.0073,789.34064,790.14655,295.75092
764.35895,787.72894,804.2491,548.7912
824.3956,783.2967,803.44324,1091.5385
786.9231,781.685,805.4579,814.3223
726.8865,782.49084,795.38464,355.78754
748.24176,792.1612,801.4286,456.92307
826.4103,795.78754,819.9634,1030.6959
825.6044,790.14655,812.3077,1136.6666
770.80585,780.87915,795.78754,834.0659
834.0659,784.10254,807.8755,1079.0476
724.4689,779.67035,782.0879,373.9194
746.2271,786.9231,788.1319,428.31503
814.3223,796.99634,801.8315,985.16486
827.619,797.8022,801.8315,1126.1904
739.7802,782.0879,789.7436,436.77655
750.65936,780.4762,797.8022,383.58975
842.9304,784.5055,804.65204,960.989
861.06226,786.9231,804.65204,1162.0513
813.5165,783.2967,798.20514,922.71063
793.36993,787.326,792.96704,892.49084
752.674,785.31134,792.96704,479.08426
726.8865,784.90845,794.9817,349.34067
793.36993,788.1319,804.65204,872.74725
840.5128,791.3553,809.0842,1187.4359
812.71063,783.69965,791.75824,998.86444
749.45056,779.67035,777.6557,512.1245
795.78754,794.9817,795.38464,819.9634
728.9011,786.52014,784.90845,302.60074
836.8865,796.5934,800.6227,1158.4249
812.71063,791.75824,797.3993,1022.23444
764.7619,785.31134,788.5348,595.12823
722.0513,788.1319,796.1905,318.71796
802.23444,777.6557,797.3993,1099.597
780.87915,780.4762,795.38464,1022.6374
725.6777,776.04395,794.17584,620.9158
760.7326,784.10254,807.47253,725.6777
687.8022,778.86444,789.34064,269.1575
751.8681,792.1612,799.011,628.5714
817.9487,793.7729,808.2784,1117.7289
812.3077,785.7143,802.6374,1105.238
778.0586,779.67035,792.96704,717.619
730.9158,775.64105,786.52014,309.45056
763.95605,782.8938,793.7729,615.2747
823.1868,787.72894,807.47253,1107.6556
817.9487,780.4762,803.44324,1102.4176
776.4469,780.87915,794.9817,793.7729
724.87177,784.10254,789.7436,346.11722
757.9121,788.1319,799.81683,530.2564
825.2015,790.54944,820.3663,1048.022
824.7985,786.52014,812.71063,1130.2197
782.49084,782.0879,794.9817,858.24176
729.304,785.31134,791.3553,376.73993
750.2564,787.72894,796.1905,455.31134
818.3516,784.10254,801.8315,992.01465
825.2015,788.5348,802.23444,1109.6703
782.8938,786.1172,799.81683,873.1502
721.6484,774.0293,793.36993,410.989
720.4396,778.46155,797.3993,382.38095
799.81683,787.72894,810.696,934.7985
826.0073,788.5348,807.47253,1155.2014
789.34064,786.9231,795.78754,926.7399
731.7216,785.31134,789.34064,422.27106
811.50183,790.54944,813.5165,904.9817
843.3333,788.1319,812.3077,1178.9744
815.9341,785.7143,801.4286,981.13556
767.5824,788.1319,788.93774,539.92676
733.3333,789.34064,796.99634,319.12088
755.09155,790.54944,797.3993,361.02563
813.5165,792.5641,810.696,844.94507
844.1392,792.96704,806.6667,1128.608
825.6044,790.14655,801.02563,1018.60803
778.86444,790.54944,792.5641,614.87177
744.21246,796.99634,788.93774,309.0476
799.81683,799.011,798.20514,758.315
848.5714,797.8022,809.4872,1147.1428
783.2967,795.78754,806.26373,660.0
727.28937,784.10254,801.8315,297.36264
781.685,788.1319,809.4872,667.25275
834.87177,800.2198,808.2784,1036.337
848.5714,795.78754,816.337,1127.8022
829.2308,793.7729,803.8461,1056.8865
773.22345,792.96704,791.75824,716.4103
720.0366,794.17584,792.96704,279.23077
770.80585,799.011,805.4579,538.71796
849.3773,798.20514,817.5458,1125.3846
847.76556,793.7729,814.3223,1139.0842
801.8315,792.5641,798.20514,786.1172
741.39197,786.9231,783.2967,338.0586
765.56775,788.5348,796.5934,498.02197
838.9011,792.96704,808.2784,1078.6447
837.6923,788.5348,803.8461,1140.2931
804.65204,785.7143,799.81683,842.52747
752.674,780.07324,786.9231,385.6044
765.9707,780.07324,795.78754,466.5934
850.58606,789.34064,812.3077,1064.9451
860.2564,789.34064,808.68134,1171.7216
816.337,784.5055,803.8461,882.01465
774.83514,784.10254,797.3993,437.98535
779.67035,789.34064,798.60803,425.89743
853.4066,797.8022,804.65204,991.6117
878.7912,798.20514,803.8461,1162.0513
831.6484,792.1612,803.0403,938.4249
769.59705,786.52014,795.78754,465.78754
755.09155,781.28204,792.5641,319.5238
823.9927,786.52014,803.44324,890.07324
863.8828,792.1612,809.4872,1186.227
829.2308,790.54944,797.8022,982.3443
766.3736,792.1612,782.0879,530.65936
740.989,796.1905,782.8938,307.83884
812.71063,795.38464,798.60803,817.1429
857.4359,792.96704,803.44324,1184.2124
824.7985,788.1319,800.6227,987.1795
768.7912,785.7143,794.17584,570.9524
751.06226,790.14655,794.17584,344.90842
819.15753,797.3993,809.4872,762.74725
866.30035,794.9817,812.71063,1157.2161
834.0659,786.1172,802.23444,1084.2858
774.83514,782.49084,793.36993,686.99634
740.989,783.2967,793.7729,314.68866
790.9524,787.326,803.0403,631.39197
865.09155,796.1905,807.0696,1114.1025
850.58606,793.36993,800.2198,1100.403
787.326,783.2967,788.1319,728.49817
743.00366,783.69965,784.10254,331.61172
769.59705,788.1319,799.41394,593.1135
838.0952,783.2967,808.68134,1107.2528
847.76556,790.14655,810.293,1135.8608
798.20514,789.7436,801.02563,767.5824
737.3626,780.4762,792.1612,312.67398
768.3883,787.326,797.8022,538.71796
