eeg_1,eeg_2,eeg_3,eeg_4
797.8022,780.87915,789.7436,766.77655
778.0586,775.2381,767.1795,713.1868
794.9817,787.326,794.57874,790.14655
817.1429,797.3993,818.3516,867.50916
805.8608,792.5641,819.5604,867.1062
784.90845,779.67035,794.9817,773.22345
773.6264,779.2674,774.43225,691.4286
780.07324,783.69965,789.34064,754.68866
805.8608,806.6667,815.12823,859.0476
817.9487,837.28937,823.5897,870.32965
796.1905,798.60803,792.96704,775.64105
769.59705,759.92676,770.80585,703.5165
776.8498,773.6264,784.5055,738.97437
803.44324,795.38464,810.293,830.4396
803.44324,799.81683,819.15753,870.32965
790.54944,790.14655,796.99634,777.6557
781.28204,788.93774,777.6557,701.50183
785.31134,786.52014,788.5348,735.7509
804.65204,805.05493,813.5165,841.31866
817.5458,815.5311,821.978,888.0586
807.0696,828.8278,803.44324,812.3077
784.5055,818.7546,782.0879,725.2747
782.0879,788.5348,787.72894,743.8095
802.23444,814.7253,811.50183,838.0952
820.3663,817.9487,817.9487,880.80585
810.696,790.54944,801.8315,828.8278
783.2967,774.0293,780.87915,729.707
774.43225,775.2381,781.685,722.8571
803.8461,788.1319,809.0842,822.7839
815.12823,809.89014,821.5751,871.9414
807.47253,813.91943,813.1135,831.6484
793.36993,793.7729,799.011,742.1978
784.10254,814.7253,790.9524,727.6923
799.41394,830.84247,808.2784,809.89014
809.0842,811.9048,826.4103,865.4945
804.65204,797.8022,818.7546,830.0366
780.87915,786.1172,792.96704,727.6923
769.59705,798.60803,786.52014,701.9048
791.75824,810.696,809.0842,782.49084
811.50183,811.50183,830.0366,862.674
808.2784,810.293,832.0513,851.79486
792.96704,801.8315,804.65204,750.65936
765.56775,787.326,782.0879,703.1135
775.2381,790.9524,803.0403,777.6557
802.23444,843.73627,827.619,855.82416
798.60803,851.39197,819.5604,848.5714
776.8498,801.02563,796.99634,756.7033
758.315,782.49084,783.69965,693.8461
801.8315,807.8755,826.4103,847.3626
773.6264,788.93774,798.20514,753.47986
806.6667,813.91943,834.87177,876.3736
784.90845,810.293,808.2784,775.64105
758.71796,803.8461,787.326,694.65204
795.78754,802.6374,820.3663,856.2271
798.20514,823.1868,823.1868,873.1502
767.98535,803.8461,784.10254,703.91943
777.6557,826.8132,799.81683,776.8498
798.20514,792.96704,823.9927,830.84247
774.43225,782.8938,802.6374,737.3626
796.1905,819.9634,806.26373,787.72894
812.3077,813.5165,822.381,869.12085
771.2088,799.011,778.86444,700.696
763.5531,788.5348,796.99634,754.68866
775.2381,804.65204,782.0879,708.3516
811.0989,826.4103,818.7546,861.06226
800.2198,830.0366,808.68134,803.8461
796.1905,820.7692,803.0403,782.49084
770,811.50183,772.8205,693.8461
770.40295,813.5165,772.8205,707.1429
797.3993,823.5897,805.8608,817.9487
813.91943,811.50183,823.5897,873.5531
792.96704,798.20514,802.6374,812.71063
759.92676,787.72894,767.1795,716.0073
763.1502,783.2967,766.77655,696.26373
782.8938,790.14655,800.2198,792.1612
793.36993,807.8755,819.15753,866.30035
790.14655,811.0989,809.0842,840.5128
770,796.99634,788.1319,747.8388
765.16486,779.67035,783.69965,701.0989
793.36993,793.7729,803.44324,786.9231
810.696,834.4689,820.7692,878.3883
804.65204,838.0952,817.1429,850.18317
781.685,792.5641,788.1319,743.4066
770.40295,755.09155,774.83514,690.6227
788.93774,769.59705,797.3993,774.83514
813.5165,797.3993,823.1868,869.12085
812.71063,800.2198,817.9487,859.85345
788.93774,780.87915,785.7143,762.3443
773.6264,765.9707,772.01465,695.05493
788.93774,796.99634,792.5641,763.1502
806.26373,821.978,817.9487,855.82416
811.50183,813.91943,816.7399,867.9121
792.1612,801.8315,801.02563,778.46155
774.43225,796.5934,780.87915,687.8022
780.4762,786.9231,787.72894,737.76556
801.4286,802.23444,811.50183,834.87177
803.8461,805.4579,808.68134,844.94507
783.69965,776.04395,789.7436,762.74725
776.04395,771.6117,775.64105,701.0989
780.87915,784.10254,788.1319,746.63007
787.72894,805.8608,801.4286,787.72894
802.23444,794.57874,813.5165,838.49817
806.6667,803.0403,817.5458,872.74725
769.59705,795.78754,782.49084,702.3077
776.04395,804.2491,785.31134,722.4542
801.8315,822.7839,807.8755,817.5458
811.0989,806.6667,819.9634,869.12085
801.02563,793.36993,803.0403,796.99634
778.46155,780.87915,777.6557,719.6337
770.80585,788.5348,780.4762,723.2601
793.7729,821.978,802.6374,811.50183
811.0989,811.9048,813.91943,872.3443
796.99634,791.75824,799.81683,815.12823
772.01465,781.28204,781.28204,716.8132
777.6557,781.685,781.28204,701.9048
809.4872,798.20514,804.65204,806.26373
814.3223,830.84247,822.381,879.59705
801.4286,826.0073,811.0989,821.978
788.93774,771.6117,788.93774,722.4542
768.7912,757.1062,769.59705,685.38464
779.67035,780.4762,786.9231,767.98535
802.6374,804.2491,818.3516,861.06226
799.011,807.47253,813.5165,831.6484
779.2674,792.96704,785.31134,738.1685
770,796.5934,780.07324,703.91943
794.17584,807.0696,801.02563,794.9817
822.7839,817.9487,817.1429,876.3736
816.337,814.7253,817.5458,866.30035
793.36993,800.6227,795.78754,767.1795
786.1172,806.26373,783.2967,711.978
794.57874,804.2491,800.6227,788.5348
803.8461,807.47253,819.15753,852.6007
809.89014,807.0696,818.7546,857.03296
799.41394,794.17584,798.60803,777.6557
775.64105,778.86444,784.10254,711.1722
783.2967,783.69965,795.38464,775.64105
805.8608,801.8315,819.15753,872.3443
817.1429,811.50183,823.5897,892.8938
792.1612,801.02563,799.011,788.5348
771.6117,800.2198,781.685,697.8755
788.1319,822.381,794.9817,740.18317
811.9048,825.2015,816.7399,845.7509
799.011,795.38464,803.8461,804.2491
780.87915,779.2674,780.07324,702.3077
784.10254,784.5055,785.7143,730.5128
820.3663,811.50183,825.2015,890.4762
803.8461,801.4286,810.293,835.6777
807.0696,799.41394,823.1868,871.13556
788.5348,780.4762,809.4872,799.41394
776.4469,773.22345,784.90845,713.1868
785.7143,779.67035,784.10254,717.2161
809.89014,801.02563,813.91943,813.91943
825.2015,848.1685,830.0366,870.32965
811.50183,858.6447,813.5165,819.5604
786.52014,799.41394,787.72894,724.87177
781.685,767.1795,786.52014,721.6484
804.65204,791.3553,809.89014,811.50183
823.5897,805.8608,828.022,888.0586
813.1135,806.26373,819.5604,846.9597
788.1319,798.20514,793.36993,725.6777
773.6264,785.31134,784.5055,701.0989
794.17584,791.75824,807.8755,794.9817
822.381,816.7399,824.3956,874.7619
818.7546,817.5458,817.5458,852.6007
807.47253,825.2015,799.011,765.56775
794.57874,822.381,784.90845,716.0073
796.1905,798.60803,799.81683,784.5055
812.3077,805.8608,823.5897,871.13556
816.7399,832.0513,826.0073,860.2564
794.9817,814.7253,795.38464,767.98535
779.2674,786.9231,780.87915,712.381
796.1905,804.2491,803.44324,780.4762
817.5458,811.9048,823.1868,880.40295
815.9341,802.6374,823.9927,878.7912
794.17584,799.41394,799.011,768.7912
779.2674,794.17584,782.0879,705.5311
786.9231,814.7253,799.81683,770
809.89014,824.3956,817.9487,861.4652
815.12823,803.8461,819.5604,868.71796
789.7436,786.1172,799.011,775.2381
776.4469,770,783.69965,707.1429
807.47253,809.4872,820.3663,851.39197
786.1172,776.04395,799.011,758.71796
821.5751,827.619,829.2308,870.32965
804.2491,798.20514,809.89014,790.54944
780.4762,771.6117,786.52014,718.022
781.685,767.1795,791.3553,731.7216
799.41394,784.90845,817.1429,821.978
813.5165,821.1722,827.2161,871.53845
799.41394,810.293,809.0842,807.0696
770.40295,771.2088,786.9231,716.8132
768.7912,771.2088,786.52014,719.2308
803.8461,790.9524,817.9487,819.5604
833.2601,811.50183,838.9011,900.54944
798.20514,807.47253,814.7253,817.5458
761.53845,786.9231,785.31134,709.9634
764.35895,788.5348,786.9231,714.7985
780.87915,821.5751,818.3516,793.7729
792.1612,821.1722,836.08057,852.6007
775.64105,801.4286,821.978,803.44324
750.2564,817.1429,797.3993,701.0989
744.61536,807.8755,788.1319,677.72894
769.19415,797.8022,808.68134,774.43225
781.28204,822.7839,833.663,848.97437
768.7912,829.6337,817.1429,806.6667
745.82416,811.50183,785.31134,698.68134
733.3333,805.05493,778.0586,665.64105
749.45056,817.9487,799.81683,757.50916
763.1502,822.7839,817.9487,836.8865
755.09155,839.304,798.60803,737.3626
765.16486,821.5751,810.696,814.7253
775.64105,846.1539,819.5604,823.5897
783.69965,813.1135,813.91943,818.7546
765.16486,810.696,796.5934,737.76556
743.4066,811.0989,778.0586,671.685
754.2857,800.2198,789.34064,732.52747
745.82416,816.7399,788.93774,705.9341
734.5421,815.12823,775.2381,650.32965
782.0879,802.6374,815.9341,832.4542
783.69965,810.696,817.1429,842.52747
762.74725,796.5934,790.54944,749.45056
760.7326,787.326,774.83514,687.8022
774.43225,813.5165,792.1612,736.1539
785.7143,817.5458,815.12823,830.84247
801.02563,826.8132,820.7692,854.61536
784.90845,828.8278,798.60803,763.1502
762.74725,794.57874,777.6557,685.38464
765.9707,765.16486,782.0879,733.73627
781.28204,778.46155,811.9048,830.4396
797.3993,803.0403,818.7546,848.5714
789.34064,790.9524,794.57874,800.2198
778.86444,789.34064,774.43225,726.8865
790.9524,796.1905,804.2491,815.12823
794.9817,785.7143,799.81683,788.93774
803.44324,795.38464,817.9487,862.27106
783.2967,794.9817,776.04395,714.3956
772.01465,801.4286,781.28204,704.3223
790.54944,798.20514,801.4286,783.69965
800.2198,802.6374,817.5458,848.1685
776.4469,792.5641,782.8938,722.4542
767.98535,783.69965,775.2381,706.7399
774.0293,800.6227,781.685,711.5751
786.9231,793.36993,802.23444,801.02563
787.72894,793.36993,796.1905,786.1172
817.1429,819.9634,815.9341,874.7619
811.50183,820.7692,803.0403,843.3333
787.326,803.0403,781.28204,736.55676
774.43225,798.60803,775.64105,709.5604
795.78754,827.2161,804.65204,796.5934
810.696,832.4542,819.5604,871.13556
799.011,792.5641,802.23444,841.7216
787.326,779.67035,785.31134,759.12085
788.1319,783.69965,783.2967,715.6044
802.23444,797.8022,802.6374,790.54944
814.7253,811.0989,822.7839,878.3883
813.1135,819.5604,819.15753,876.3736
792.1612,814.3223,789.7436,783.69965
780.07324,796.99634,778.46155,715.6044
787.326,793.7729,799.81683,781.685
803.8461,808.2784,811.50183,864.68866
791.75824,805.8608,788.93774,792.1612
794.57874,796.99634,793.7729,768.7912
814.3223,817.5458,821.5751,844.94507
817.5458,814.3223,821.978,870.32965
791.75824,794.57874,796.1905,792.96704
779.67035,778.86444,770.40295,727.28937
809.4872,830.4396,810.293,869.5238
774.43225,797.3993,771.2088,716.8132
792.1612,805.8608,785.7143,747.8388
813.1135,823.9927,812.71063,839.707
819.9634,825.2015,816.337,880.80585
809.0842,787.326,799.81683,805.8608
790.14655,792.1612,785.31134,736.55676
790.9524,800.2198,793.36993,747.03296
809.89014,791.3553,813.5165,827.2161
818.7546,809.4872,826.0073,878.3883
807.8755,800.6227,811.9048,809.4872
789.34064,779.2674,783.2967,727.6923
788.5348,786.9231,784.5055,728.9011
809.0842,805.8608,809.89014,829.2308
824.3956,819.9634,826.0073,887.25275
813.5165,803.44324,809.89014,813.5165
789.7436,785.7143,787.326,727.28937
786.1172,787.72894,789.7436,729.707
807.0696,824.7985,813.5165,832.0513
824.3956,845.34796,828.022,890.4762
817.1429,802.6374,811.0989,843.73627
794.17584,776.4469,793.36993,755.89746
792.96704,767.1795,790.54944,720.84247
803.0403,769.19415,806.26373,798.60803
808.68134,773.22345,815.12823,863.47986
813.5165,778.46155,807.47253,836.08057
801.8315,781.685,791.75824,757.50916
789.34064,774.43225,782.49084,717.619
806.26373,784.90845,804.65204,799.41394
825.6044,806.26373,824.3956,876.77655
817.5458,832.4542,820.3663,853.8095
798.60803,816.337,800.6227,765.9707
784.90845,791.75824,785.7143,705.12823
792.96704,794.9817,803.8461,782.8938
820.3663,797.8022,824.7985,859.0476
818.3516,799.011,821.5751,851.79486
792.96704,797.8022,801.02563,786.1172
781.685,801.02563,787.326,722.4542
794.17584,796.99634,799.81683,773.6264
811.50183,805.8608,830.0366,871.9414
817.5458,798.20514,826.0073,864.2857
788.1319,806.26373,811.0989,785.31134
770.80585,815.12823,791.75824,707.9487
807.47253,807.0696,831.2454,861.4652
817.5458,819.5604,838.0952,884.83514
782.8938,815.9341,812.71063,793.36993
766.77655,805.4579,795.78754,701.50183
774.43225,806.6667,803.0403,742.1978
774.0293,822.7839,801.02563,756.7033
791.3553,812.3077,823.1868,829.6337
797.3993,826.4103,835.2747,844.5421
779.2674,816.337,814.3223,780.4762
763.1502,803.44324,787.72894,704.3223
765.9707,795.78754,793.36993,718.4249
799.81683,828.4249,825.2015,805.4579
807.0696,843.73627,833.2601,865.09155
786.52014,806.26373,817.5458,805.4579
767.1795,789.7436,794.9817,702.3077
765.16486,789.34064,784.90845,715.6044
792.96704,813.91943,813.5165,810.293
802.23444,817.1429,828.8278,857.4359
788.1319,814.3223,816.7399,810.696
776.04395,806.6667,792.1612,728.49817
772.4176,772.8205,775.64105,706.337
788.1319,776.04395,794.9817,781.28204
801.8315,792.1612,813.5165,837.6923
803.8461,816.337,804.2491,815.9341
787.72894,812.71063,786.1172,749.85345
775.64105,772.4176,776.4469,704.3223
790.14655,784.90845,799.41394,779.2674
814.3223,819.15753,819.15753,859.45056
823.1868,827.2161,812.71063,860.2564
802.23444,817.5458,793.36993,775.64105
781.685,805.05493,782.49084,707.1429
792.96704,806.26373,802.6374,778.86444
811.0989,805.05493,817.5458,853.8095
815.5311,815.5311,823.9927,859.0476
794.9817,807.0696,805.4579,778.0586
780.87915,814.7253,782.49084,719.6337
787.326,822.381,797.8022,778.0586
805.8608,811.50183,817.1429,838.9011
812.3077,819.15753,819.15753,847.76556
794.17584,805.4579,797.3993,784.10254
778.46155,788.1319,774.83514,718.8278
783.2967,784.90845,787.326,762.3443
800.2198,800.2198,813.91943,839.304
804.2491,818.3516,818.3516,849.7802
797.3993,802.6374,795.78754,788.5348
777.6557,779.67035,779.67035,710.3663
772.4176,789.34064,788.1319,734.94507
796.5934,824.3956,812.3077,831.2454
811.0989,844.5421,820.3663,868.71796
796.99634,820.7692,803.0403,801.4286
774.83514,784.5055,781.28204,722.0513
770.40295,770,777.6557,727.28937
792.96704,788.5348,807.0696,819.15753
811.50183,808.68134,820.3663,869.12085
799.41394,790.9524,796.99634,790.54944
779.2674,764.35895,775.2381,716.8132
781.685,774.0293,778.46155,724.4689
799.41394,792.1612,802.6374,804.65204
809.89014,801.02563,811.9048,855.42126
798.60803,822.7839,803.44324,812.71063
781.685,798.60803,782.49084,741.39197
773.6264,761.13556,774.0293,727.6923
792.96704,801.4286,805.8608,807.0696
817.5458,829.2308,830.0366,875.16486
804.65204,804.2491,816.337,840.9158
782.0879,772.01465,787.72894,757.1062
778.46155,776.4469,786.9231,725.2747
789.34064,802.23444,807.8755,795.38464
801.8315,801.02563,813.5165,863.0769
803.8461,796.5934,808.2784,840.10986
793.36993,793.36993,788.5348,765.16486
781.685,801.8315,781.28204,725.6777
793.7729,812.3077,798.60803,791.3553
808.68134,798.20514,809.0842,861.8681
817.9487,807.8755,810.696,853.4066
809.4872,806.6667,796.5934,776.4469
797.8022,788.1319,776.4469,722.8571
807.8755,803.0403,791.75824,788.1319
820.3663,807.8755,808.2784,859.85345
823.9927,801.4286,807.8755,853.4066
811.9048,792.1612,788.5348,793.7729
791.3553,781.28204,770.80585,731.7216
799.011,789.7436,788.93774,772.01465
823.9927,826.4103,811.50183,862.27106
826.4103,823.5897,811.9048,880.80585
810.293,785.31134,788.5348,792.5641
789.7436,776.4469,766.3736,720.84247
786.1172,778.0586,777.25275,763.5531
814.3223,801.02563,802.23444,843.3333
823.9927,813.91943,809.0842,867.50916
813.91943,798.60803,794.9817,808.2784
794.57874,790.14655,778.86444,735.7509
786.52014,786.9231,777.25275,741.79486
811.50183,796.1905,802.23444,833.2601
820.7692,815.12823,818.3516,879.59705
809.4872,823.1868,799.41394,813.1135
799.011,814.3223,779.2674,734.1392
785.31134,776.8498,782.0879,734.5421
799.41394,776.8498,801.8315,811.50183
819.5604,810.293,817.1429,869.92676
809.4872,807.47253,806.26373,825.6044
790.9524,786.9231,786.1172,735.7509
784.10254,769.59705,779.67035,722.4542
798.60803,784.90845,794.17584,811.0989
820.3663,814.3223,814.7253,880.80585
816.337,811.0989,808.68134,840.5128
786.9231,791.75824,782.8938,745.0183
778.46155,792.1612,776.04395,726.08057
800.2198,808.68134,801.8315,806.26373
815.9341,802.23444,816.7399,859.45056
807.0696,796.99634,811.0989,841.7216
795.78754,792.1612,795.78754,765.56775
784.5055,795.38464,780.4762,714.7985
795.78754,801.02563,798.60803,778.0586
820.7692,813.91943,817.5458,859.45056
825.6044,811.0989,813.1135,851.79486
807.47253,785.7143,793.7729,794.9817
780.87915,774.0293,776.4469,748.6447
802.23444,795.78754,801.4286,774.0293
827.619,840.10986,824.7985,854.61536
817.1429,848.1685,820.7692,857.8388
795.78754,799.41394,796.99634,778.46155
784.10254,772.01465,786.1172,730.9158
796.99634,781.28204,796.5934,783.69965
811.9048,784.90845,808.68134,852.1978
824.7985,794.9817,812.71063,865.89746
806.6667,800.2198,791.75824,786.52014
791.75824,786.9231,774.43225,724.87177
801.4286,776.8498,783.69965,766.77655
813.91943,787.326,803.44324,849.3773
816.7399,803.44324,806.26373,867.1062
801.4286,811.9048,793.7729,783.69965
805.05493,785.7143,790.54944,765.9707
795.78754,798.20514,781.28204,720.4396
826.8132,812.71063,819.15753,852.1978
819.5604,823.9927,821.5751,859.0476
802.23444,807.8755,799.41394,795.38464
787.326,798.20514,788.1319,721.6484
778.0586,807.0696,793.36993,733.3333
780.07324,821.978,811.50183,809.4872
791.3553,818.3516,820.3663,840.5128
778.86444,811.9048,807.0696,799.011
751.06226,796.1905,790.14655,724.87177
748.6447,805.8608,785.7143,698.2784
761.53845,817.5458,804.65204,776.4469
776.04395,806.26373,820.3663,850.18317
774.43225,812.71063,811.0989,800.6227
753.8828,799.81683,791.75824,700.696
750.65936,796.5934,786.1172,693.8461
762.3443,832.4542,811.0989,774.83514
766.77655,830.84247,825.2015,820.3663
769.59705,814.3223,816.7399,805.8608
766.77655,812.71063,792.5641,730.10986
770.80585,809.0842,783.2967,699.89014
774.83514,818.7546,814.3223,777.6557
776.4469,865.89746,834.0659,830.4396
775.2381,868.71796,821.5751,812.71063
771.2088,814.7253,797.3993,754.68866
771.2088,793.7729,786.9231,728.0952
770,801.4286,800.6227,775.2381
770.80585,823.1868,815.9341,816.337
786.9231,825.6044,817.5458,821.978
787.326,810.696,803.8461,776.04395
772.01465,830.4396,807.8755,760.7326
777.25275,835.6777,824.7985,833.663
775.64105,810.696,793.36993,726.4835
791.75824,824.3956,826.0073,850.58606
782.0879,820.3663,793.7729,716.8132
792.5641,822.7839,807.0696,778.46155
776.8498,799.011,796.5934,746.63007
794.57874,804.65204,813.91943,834.4689
798.20514,821.978,818.3516,865.89746
787.72894,817.9487,799.011,776.8498
782.8938,799.81683,785.7143,717.619
780.87915,805.8608,791.3553,741.39197
792.96704,826.8132,809.89014,812.71063
803.8461,822.381,815.9341,848.1685
795.78754,807.0696,804.2491,783.69965
774.43225,800.2198,788.1319,716.8132
765.56775,805.05493,787.326,722.0513
785.7143,818.3516,811.50183,809.89014
813.1135,812.3077,819.5604,853.8095
815.12823,796.99634,802.23444,801.02563
794.17584,783.2967,786.1172,737.3626
795.38464,778.0586,782.49084,748.6447
814.7253,788.1319,803.8461,817.9487
812.3077,799.81683,817.1429,861.4652
799.81683,800.2198,803.0403,825.6044
786.52014,792.5641,784.90845,748.24176
800.6227,786.52014,781.28204,730.10986
821.5751,797.8022,803.0403,817.5458
826.8132,824.3956,820.3663,878.3883
822.381,809.0842,814.3223,834.87177
796.99634,766.77655,786.9231,751.4652
782.49084,758.71796,773.22345,730.5128
802.6374,775.2381,797.8022,811.0989
819.15753,795.78754,815.5311,861.4652
811.0989,808.2784,807.47253,828.4249
792.96704,796.5934,786.52014,757.9121
781.28204,780.4762,778.86444,726.8865
798.20514,790.9524,800.2198,796.99634
817.5458,798.60803,818.7546,869.12085
817.9487,793.36993,815.12823,855.42126
801.8315,800.2198,800.6227,772.01465
780.87915,789.7436,781.28204,724.0659
783.2967,761.53845,786.1172,776.4469
805.05493,761.53845,810.696,842.1245
818.3516,792.1612,819.15753,861.4652
807.47253,795.78754,805.4579,798.60803
799.81683,769.19415,789.34064,737.3626
805.8608,784.5055,797.3993,760.7326
817.9487,807.47253,813.5165,846.1539
821.5751,799.41394,818.3516,874.35895
803.8461,789.34064,807.8755,788.5348
793.36993,796.5934,794.9817,724.4689
793.36993,818.3516,800.6227,748.6447
807.8755,827.2161,813.91943,837.6923
813.91943,808.2784,819.5604,880.80585
803.44324,783.2967,800.6227,797.8022
788.93774,782.0879,787.326,728.0952
797.8022,795.38464,794.57874,779.2674
812.71063,804.65204,808.2784,843.73627
807.8755,818.3516,817.5458,860.65936
797.3993,805.8608,800.6227,813.91943
779.2674,784.5055,782.0879,742.1978
778.86444,784.10254,782.0879,739.3773
798.20514,796.5934,806.26373,816.337
810.293,828.022,821.1722,853.4066
809.0842,823.9927,808.2784,819.15753
798.60803,779.67035,788.5348,755.4945
784.90845,767.5824,783.2967,731.31866
804.65204,780.07324,803.8461,801.8315
827.619,794.57874,819.5604,859.0476
820.7692,799.81683,811.50183,829.6337
801.4286,796.99634,789.34064,761.9414
792.96704,783.69965,779.67035,730.5128
807.8755,813.5165,799.011,804.65204
823.9927,819.5604,810.696,871.13556
822.7839,791.75824,804.65204,846.1539
797.8022,805.4579,790.14655,776.8498
781.28204,796.5934,779.2674,743.00366
804.65204,773.22345,794.17584,809.4872
829.6337,785.31134,811.9048,864.68866
817.1429,801.8315,808.2784,848.5714
796.1905,790.9524,792.5641,781.28204
790.14655,778.46155,783.69965,739.7802
796.99634,784.10254,795.38464,796.5934
811.50183,796.1905,809.89014,860.65936
812.3077,801.02563,807.8755,867.50916
800.2198,783.2967,792.1612,803.0403
784.5055,774.83514,782.49084,740.58606
791.75824,798.20514,797.3993,783.69965
812.71063,814.3223,815.12823,862.674
813.1135,797.3993,808.2784,868.71796
793.7729,774.0293,791.75824,793.36993
784.5055,773.6264,773.6264,725.6777
788.93774,786.1172,780.07324,754.2857
811.9048,791.3553,805.05493,846.1539
826.8132,796.5934,807.0696,879.19415
818.3516,791.3553,791.3553,809.0842
805.05493,780.4762,782.0879,752.674
801.8315,776.04395,791.75824,777.6557
823.1868,818.3516,825.6044,875.9707
811.0989,776.8498,810.293,838.9011
814.7253,820.7692,808.68134,825.6044
790.54944,784.5055,780.87915,749.0476
792.5641,772.4176,782.49084,744.61536
815.5311,788.93774,818.3516,869.12085
812.71063,784.10254,803.44324,824.7985
804.65204,770.80585,802.23444,818.7546
794.9817,771.2088,779.2674,754.2857
787.72894,768.7912,780.4762,746.63007
813.1135,785.7143,803.8461,818.7546
826.4103,805.05493,816.337,861.8681
814.3223,804.2491,803.8461,814.3223
800.6227,809.4872,788.93774,746.2271
789.34064,813.1135,785.7143,734.1392
802.23444,799.011,794.57874,812.3077
814.7253,796.5934,806.6667,875.16486
817.9487,803.0403,807.47253,839.707
807.8755,807.8755,792.5641,767.5824
784.90845,778.0586,777.25275,745.42126
796.1905,769.59705,790.9524,802.6374
811.0989,808.2784,809.4872,860.2564
813.1135,801.4286,809.0842,857.4359
797.3993,794.17584,792.5641,781.28204
791.75824,789.7436,779.2674,720.0366
804.2491,824.7985,796.1905,790.9524
813.91943,834.0659,814.7253,854.61536
808.68134,802.6374,815.9341,849.3773
786.52014,794.9817,796.1905,772.4176
770,785.31134,779.67035,718.022
788.5348,791.3553,798.20514,773.22345
804.65204,805.4579,813.5165,836.8865
802.23444,829.6337,815.9341,840.9158
773.6264,817.1429,797.8022,765.9707
759.12085,792.1612,780.4762,704.7253
766.3736,813.1135,790.9524,738.97437
777.25275,820.3663,808.68134,813.1135
792.5641,836.4835,817.1429,841.7216
770.40295,833.663,800.6227,759.92676
757.9121,800.2198,784.90845,694.65204
778.46155,807.47253,794.9817,735.34796
792.5641,818.7546,816.337,814.3223
801.8315,818.3516,827.2161,836.8865
782.49084,824.3956,813.1135,776.8498
762.3443,827.619,789.34064,706.337
766.77655,818.7546,791.3553,701.9048
781.685,826.8132,817.5458,795.38464
795.38464,847.76556,824.7985,856.2271
786.9231,819.5604,807.0696,792.5641
774.0293,803.44324,788.1319,714.7985
776.4469,810.696,788.93774,723.663
801.02563,800.2198,809.0842,807.0696
817.9487,806.26373,822.381,861.06226
807.8755,809.89014,815.5311,831.2454
793.36993,778.46155,796.5934,749.0476
780.4762,761.9414,784.10254,712.7839
797.3993,794.17584,800.6227,793.36993
807.8755,808.68134,818.7546,857.8388
803.0403,801.8315,815.9341,827.619
804.65204,807.0696,798.20514,753.8828
792.1612,806.6667,791.75824,720.0366
789.7436,829.6337,809.0842,795.38464
806.26373,851.79486,823.1868,854.61536
810.293,817.1429,815.9341,834.87177
803.44324,777.6557,796.1905,767.98535
796.5934,766.77655,778.46155,721.6484
796.1905,779.2674,789.34064,783.69965
811.50183,801.02563,813.1135,880.40295
805.05493,802.23444,809.0842,857.8388
780.07324,782.8938,790.14655,757.1062
785.31134,783.69965,794.17584,753.8828
794.9817,779.2674,805.8608,832.4542
774.43225,778.46155,780.87915,699.4872
802.6374,801.4286,810.696,849.3773
784.90845,784.5055,794.9817,787.326
774.0293,765.56775,771.6117,711.5751
809.4872,799.41394,813.5165,842.9304
787.326,803.0403,787.326,760.32965
817.1429,799.81683,818.7546,869.92676
791.75824,799.011,796.5934,792.1612
778.46155,795.78754,778.0586,720.0366
785.31134,789.34064,786.1172,750.65936
807.47253,793.7729,807.47253,830.0366
812.71063,800.2198,815.5311,859.45056
796.1905,785.7143,800.6227,798.20514
808.2784,797.8022,809.4872,816.337
816.337,801.8315,815.5311,882.01465
778.86444,792.96704,782.0879,718.8278
779.67035,788.5348,780.87915,728.9011
795.38464,790.9524,790.54944,808.68134
789.7436,789.7436,774.43225,717.2161
787.326,791.75824,772.4176,714.7985
804.65204,796.1905,796.99634,823.5897
815.12823,800.2198,808.2784,881.2088
805.4579,789.34064,794.57874,812.71063
789.34064,782.0879,772.8205,730.9158
778.46155,779.2674,778.86444,717.619
828.4249,838.9011,822.381,883.22345
803.44324,825.6044,814.7253,803.44324
787.326,780.07324,779.67035,740.58606
812.3077,800.6227,800.6227,844.5421
778.46155,774.0293,771.6117,701.9048
797.3993,784.10254,794.17584,799.011
821.1722,793.7729,819.15753,878.7912
817.9487,794.9817,815.9341,857.8388
801.02563,789.7436,792.96704,756.7033
782.8938,778.0586,778.46155,697.8755
795.38464,789.7436,797.8022,788.1319
823.5897,811.0989,822.7839,886.4469
823.1868,823.1868,817.1429,869.92676
801.02563,801.8315,789.7436,768.3883
776.04395,768.7912,776.4469,706.337
791.3553,782.0879,796.5934,767.98535
815.9341,804.65204,816.7399,863.8828
829.2308,808.2784,815.12823,872.74725
815.9341,796.99634,795.78754,791.75824
791.3553,783.69965,781.685,714.7985
796.1905,791.3553,798.60803,763.1502
820.3663,801.8315,823.1868,871.53845
838.0952,813.91943,827.2161,893.69965
803.8461,800.2198,805.8608,801.4286
784.5055,791.75824,792.5641,714.7985
799.011,811.9048,802.6374,760.7326
821.1722,814.3223,816.337,863.47986
838.49817,812.3077,825.2015,893.69965
823.1868,802.23444,807.47253,807.0696
793.7729,797.3993,781.28204,727.6923
787.326,793.7729,786.52014,750.65936
816.7399,801.4286,816.337,838.9011
833.663,811.50183,826.0073,882.8205
818.7546,806.26373,806.26373,811.50183
793.36993,784.90845,789.34064,719.2308
786.1172,773.22345,785.31134,734.1392
816.337,811.9048,808.2784,837.28937
834.4689,849.3773,828.8278,886.4469
808.2784,813.1135,806.26373,816.337
789.7436,768.3883,780.4762,726.8865
790.9524,778.0586,780.87915,721.2454
809.89014,796.1905,804.65204,815.9341
831.2454,796.99634,821.1722,882.01465
816.337,784.5055,803.0403,842.52747
795.38464,782.49084,780.07324,734.94507
788.5348,799.41394,779.67035,700.696
802.6374,814.7253,796.5934,804.65204
822.7839,824.3956,817.5458,881.2088
796.1905,819.15753,794.17584,746.2271
785.31134,787.326,784.10254,711.978
817.9487,829.6337,815.5311,843.3333
801.8315,809.89014,805.4579,790.14655
829.2308,834.4689,829.6337,883.6264
834.4689,812.3077,817.5458,864.68866
797.3993,792.1612,788.5348,765.16486
787.72894,781.28204,783.2967,715.2015
805.4579,790.54944,799.81683,788.93774
812.71063,811.0989,822.381,873.95605
811.50183,809.4872,824.3956,882.01465
784.10254,790.14655,798.60803,780.87915
770.40295,796.1905,783.2967,695.05493
782.8938,804.65204,801.8315,761.53845
801.8315,786.52014,823.5897,859.0476
819.5604,805.05493,831.2454,880.40295
804.2491,806.6667,804.2491,786.52014
771.6117,779.2674,771.2088,698.68134
779.2674,803.0403,784.90845,748.24176
807.47253,825.2015,816.7399,842.9304
807.8755,806.26373,819.9634,869.5238
789.34064,788.93774,794.9817,792.5641
773.6264,774.43225,773.22345,698.68134
784.5055,781.28204,786.9231,735.34796
809.4872,827.619,815.9341,840.9158
815.9341,826.0073,821.1722,873.1502
797.3993,796.99634,806.26373,802.23444
785.7143,805.4579,783.2967,712.381
792.96704,811.0989,787.326,728.49817
811.9048,805.4579,814.3223,826.4103
829.2308,822.7839,826.4103,880.40295
819.15753,815.12823,805.4579,822.381
807.8755,807.0696,783.69965,736.55676
801.8315,809.89014,790.54944,729.707
819.15753,819.15753,811.9048,826.0073
832.0513,828.4249,823.5897,892.0879
826.0073,829.2308,814.7253,846.9597
796.5934,813.1135,784.90845,753.47986
782.0879,778.86444,781.28204,726.4835
811.0989,787.326,806.26373,815.9341
825.2015,793.7729,814.3223,884.43225
819.15753,788.5348,811.0989,861.06226
794.9817,780.07324,789.7436,760.32965
777.25275,766.3736,778.0586,713.9927
805.4579,786.1172,810.293,807.0696
814.3223,814.3223,814.3223,852.6007
827.619,808.68134,832.0513,880.80585
790.54944,811.9048,793.36993,771.2088
775.2381,812.3077,785.7143,719.6337
791.75824,808.2784,803.8461,787.72894
813.5165,797.3993,822.381,875.56775
809.4872,794.9817,817.1429,855.82416
794.9817,791.75824,794.57874,756.30035
774.83514,800.6227,782.0879,699.0842
793.36993,806.26373,797.3993,759.5238
823.5897,811.9048,820.3663,859.85345
817.1429,823.5897,822.381,863.47986
799.81683,808.2784,800.2198,772.8205
788.93774,784.90845,780.87915,712.381
797.8022,786.9231,788.93774,759.92676
826.8132,859.0476,827.2161,870.7326
792.5641,811.9048,799.41394,791.75824
781.685,780.4762,780.87915,712.7839
792.5641,793.7729,790.14655,746.63007
801.02563,796.1905,808.68134,840.9158
808.68134,801.8315,815.9341,872.3443
824.3956,828.022,816.337,850.18317
798.60803,798.20514,794.17584,794.57874
789.7436,800.2198,803.44324,831.6484
805.05493,814.7253,820.3663,870.32965
784.90845,778.0586,769.59705,700.696
794.9817,822.381,799.41394,806.26373
775.64105,776.8498,776.04395,725.2747
778.86444,813.91943,771.6117,717.2161
784.5055,786.1172,778.86444,719.2308
809.89014,784.90845,803.44324,823.1868
817.1429,808.2784,819.9634,883.22345
802.23444,801.8315,810.293,831.2454
786.1172,782.8938,786.52014,723.663
777.6557,778.46155,785.7143,718.022
807.0696,789.34064,815.12823,814.3223
832.8571,808.68134,830.0366,883.22345
827.619,814.3223,817.9487,858.24176
807.0696,798.20514,796.1905,755.89746
780.87915,808.2784,788.93774,716.0073
800.2198,821.5751,809.4872,805.8608
827.2161,801.4286,826.8132,883.6264
814.7253,790.54944,818.3516,869.5238
787.326,795.38464,792.96704,759.92676
774.43225,792.5641,777.6557,691.8315
792.1612,801.4286,795.78754,780.07324
812.71063,820.3663,817.9487,859.0476
817.1429,821.978,816.337,860.65936
772.8205,782.0879,776.04395,703.1135
778.46155,783.69965,793.36993,760.7326
795.78754,799.41394,789.7436,776.04395
796.1905,806.26373,816.337,862.27106
805.4579,817.9487,820.7692,868.71796
791.75824,788.93774,805.4579,763.1502
771.2088,772.4176,788.5348,697.0696
780.4762,780.87915,793.7729,758.315
805.05493,807.47253,817.5458,858.6447
823.1868,812.71063,824.7985,875.16486
797.8022,786.9231,802.23444,784.10254
762.74725,782.49084,778.0586,706.7399
778.46155,812.3077,792.96704,747.8388
808.2784,817.9487,819.5604,848.5714
828.4249,802.6374,828.8278,885.2381
802.23444,810.696,805.4579,819.5604
763.95605,795.78754,773.22345,707.1429
773.22345,775.2381,782.49084,707.5458
803.44324,791.75824,812.71063,842.9304
810.293,831.6484,809.89014,819.9634
824.3956,815.9341,829.2308,902.5641
783.2967,807.8755,780.07324,705.12823
778.0586,781.28204,784.90845,700.293
808.2784,805.4579,808.2784,811.0989
823.9927,835.2747,820.3663,883.6264
783.69965,794.9817,780.87915,718.4249
811.9048,814.7253,805.4579,828.022
768.7912,807.47253,779.2674,712.7839
798.60803,809.0842,809.4872,831.2454
828.4249,800.2198,827.619,901.3553
817.9487,792.5641,808.2784,848.97437
796.5934,780.4762,784.10254,753.0769
786.52014,776.04395,780.87915,712.7839
805.05493,792.1612,803.8461,790.9524
829.2308,817.5458,819.5604,880
800.2198,794.57874,794.57874,755.89746
778.86444,781.685,778.86444,707.5458
828.022,821.1722,816.7399,858.24176
806.26373,801.4286,802.6374,799.81683
827.2161,834.0659,824.7985,890.4762
828.4249,832.4542,818.7546,862.674
795.38464,809.89014,796.1905,765.56775
769.19415,788.5348,773.6264,709.9634
794.17584,787.326,789.34064,770.80585
818.3516,806.26373,815.9341,861.8681
824.7985,813.5165,817.1429,869.5238
797.8022,802.23444,798.20514,777.25275
774.0293,785.31134,782.49084,701.0989
794.9817,803.0403,792.1612,763.95605
816.337,827.619,807.0696,860.65936
822.7839,815.9341,811.0989,872.74725
797.3993,805.05493,789.34064,778.46155
767.1795,787.72894,770,686.99634
774.0293,774.83514,784.5055,738.97437
809.4872,794.17584,809.89014,853.4066
832.0513,814.7253,823.1868,904.57874
819.5604,812.3077,807.0696,826.8132
805.05493,782.8938,778.0586,726.8865
797.8022,781.685,780.07324,743.4066
842.1245,818.3516,821.5751,892.0879
769.59705,778.86444,776.04395,712.381
821.5751,809.4872,807.8755,858.6447
777.25275,790.14655,784.10254,725.6777
824.7985,815.9341,810.696,844.94507
827.619,807.8755,807.8755,820.3663
794.17584,797.3993,785.31134,724.0659
848.1685,806.26373,820.3663,888.86444
784.90845,782.8938,781.685,719.2308
807.47253,799.41394,806.6667,814.7253
811.9048,803.44324,803.44324,804.65204
822.381,822.381,825.2015,868.71796
805.05493,804.65204,805.05493,819.5604
786.1172,784.5055,775.64105,726.4835
792.96704,782.8938,772.4176,713.9927
828.8278,824.7985,822.381,886.04395
799.011,823.1868,814.7253,831.6484
777.25275,777.25275,781.685,727.28937
828.022,792.1612,794.9817,813.91943
763.5531,758.71796,779.67035,694.2491
803.8461,775.64105,812.3077,796.5934
836.08057,788.5348,828.8278,900.14655
831.6484,787.72894,821.5751,886.4469
804.2491,770.80585,799.41394,761.13556
777.25275,749.85345,784.90845,687.3993
799.011,772.8205,814.7253,787.72894
834.4689,800.2198,837.28937,893.69965
835.2747,793.7729,828.4249,886.4469
809.0842,800.2198,806.26373,781.685
791.75824,790.54944,785.7143,711.5751
801.4286,776.04395,797.3993,774.83514
826.0073,788.1319,826.0073,872.74725
836.08057,806.26373,834.0659,895.7143
809.4872,807.0696,810.293,797.8022
772.01465,783.2967,783.69965,702.3077
788.1319,785.31134,795.38464,768.3883
841.31866,812.3077,828.8278,888.46155
830.84247,803.44324,823.5897,883.22345
778.86444,769.19415,788.5348,730.9158
805.4579,797.3993,806.6667,810.696
788.1319,786.9231,803.0403,746.63007
812.3077,817.5458,828.8278,866.7033
818.7546,799.81683,830.84247,902.96704
803.44324,780.07324,811.50183,817.9487
777.25275,773.22345,789.34064,708.3516
770.80585,763.5531,795.38464,721.6484
802.23444,777.25275,822.381,851.79486
820.7692,800.2198,826.0073,901.75824
803.44324,788.1319,802.6374,823.9927
778.0586,780.87915,784.10254,735.7509
775.2381,791.3553,790.9524,727.28937
799.011,790.54944,813.91943,808.68134
825.6044,832.0513,832.0513,892.0879
814.7253,825.2015,817.9487,832.4542
782.8938,780.4762,793.36993,736.55676
780.07324,794.17584,793.7729,726.08057
809.0842,801.4286,817.5458,818.7546
838.0952,807.47253,831.6484,903.36993
834.4689,808.2784,819.15753,854.61536
795.38464,791.75824,796.5934,736.9597
765.56775,779.67035,793.36993,693.44324
789.7436,794.9817,813.91943,794.17584
831.2454,817.1429,830.84247,894.5055
825.2015,819.15753,818.3516,856.63007
788.5348,814.3223,794.9817,736.55676
782.0879,801.02563,785.31134,693.44324
806.26373,795.38464,805.05493,798.20514
831.2454,804.2491,826.0073,892.8938
833.2601,796.99634,817.9487,871.9414
800.6227,778.86444,797.3993,765.56775
771.2088,763.95605,783.2967,691.8315
787.72894,774.83514,800.2198,769.59705
817.1429,793.36993,817.9487,877.5824
827.619,792.1612,818.3516,886.4469
803.0403,789.7436,796.5934,770.80585
776.04395,789.7436,782.49084,684.57874
786.52014,813.5165,799.81683,752.27106
820.3663,837.28937,820.7692,854.61536
830.4396,811.50183,818.7546,876.77655
798.20514,797.8022,795.78754,778.0586
765.9707,792.5641,778.86444,691.8315
779.2674,796.99634,791.75824,734.5421
821.1722,810.293,819.15753,855.0183
840.10986,826.4103,827.2161,909.41394
814.7253,817.1429,806.6667,810.293
784.5055,781.28204,782.49084,692.23444
793.36993,781.28204,788.5348,731.31866
826.0073,799.81683,815.12823,850.18317
834.87177,825.6044,821.5751,889.67035
805.4579,816.337,799.81683,822.7839
781.28204,778.46155,779.2674,716.0073
789.7436,772.4176,784.90845,707.5458
816.337,807.0696,807.0696,830.4396
836.8865,801.8315,829.6337,902.5641
820.3663,784.5055,816.7399,831.2454
792.5641,790.14655,780.87915,721.6484
781.28204,786.52014,777.6557,709.9634
839.304,830.0366,826.4103,907.3993
827.619,819.15753,812.3077,850.58606
780.87915,785.7143,777.25275,692.6374
794.17584,801.02563,787.72894,739.3773
805.05493,782.0879,795.78754,788.5348
824.7985,809.0842,813.91943,868.71796
787.72894,782.8938,795.38464,765.56775
776.4469,770,782.49084,708.7546
833.663,813.1135,820.3663,895.31134
802.23444,803.0403,805.8608,827.619
800.6227,776.04395,794.17584,774.83514
819.15753,793.36993,823.1868,881.6117
792.1612,793.7729,792.96704,760.7326
778.46155,769.59705,776.4469,685.38464
821.978,836.08057,821.978,889.67035
821.978,807.0696,821.978,884.0293
799.81683,792.1612,795.38464,779.2674
831.2454,818.7546,815.12823,884.83514
806.6667,784.10254,791.75824,777.6557
781.685,767.5824,783.2967,696.6667
796.99634,773.22345,795.38464,758.71796
826.8132,801.8315,816.7399,870.32965
830.84247,813.1135,823.1868,894.5055
805.4579,803.8461,801.02563,789.7436
767.98535,792.96704,780.4762,683.7729
774.83514,792.96704,788.93774,728.9011
813.91943,808.68134,811.50183,853.4066
828.022,843.73627,828.022,906.5934
807.0696,834.0659,806.6667,806.26373
782.49084,776.4469,778.86444,699.4872
786.1172,784.5055,784.10254,716.8132
809.89014,803.8461,808.2784,830.4396
823.9927,807.47253,819.9634,886.04395
803.0403,805.8608,799.41394,805.05493
773.6264,784.90845,774.83514,695.8608
765.9707,783.69965,777.25275,711.978
831.6484,806.26373,826.4103,901.75824
809.4872,800.6227,805.05493,838.0952
803.8461,802.6374,810.293,830.4396
775.2381,810.293,780.4762,728.9011
806.26373,808.2784,808.68134,820.3663
770,810.293,776.04395,714.3956
781.28204,780.07324,788.1319,739.7802
814.7253,787.326,808.68134,840.9158
834.4689,809.0842,826.8132,896.52014
765.56775,776.4469,776.4469,697.0696
796.5934,773.6264,796.1905,806.26373
825.6044,792.96704,821.978,900.14655
809.0842,805.8608,810.293,844.5421
777.6557,803.0403,786.1172,739.3773
774.0293,787.326,778.46155,697.47253
800.6227,812.71063,803.0403,795.78754
827.2161,840.10986,827.2161,888.86444
830.0366,808.2784,817.1429,861.4652
796.5934,778.46155,787.326,755.89746
772.4176,774.0293,773.22345,685.78754
788.93774,786.9231,791.3553,758.71796
813.1135,799.81683,819.15753,852.6007
816.7399,800.2198,813.5165,848.97437
783.2967,795.78754,785.7143,748.6447
762.3443,784.90845,786.9231,739.7802
751.4652,767.98535,770.40295,664.43225
810.293,823.1868,820.7692,863.0769
818.3516,828.022,823.9927,880.80585
781.685,823.1868,799.011,779.2674
765.16486,792.96704,782.49084,684.9817
755.89746,776.4469,792.5641,725.6777
769.59705,807.0696,813.1135,836.8865
799.41394,836.4835,821.978,859.0476
780.07324,829.6337,806.6667,762.3443
745.82416,802.6374,786.1172,675.7143
740.18317,795.38464,792.1612,701.0989
770,823.5897,814.3223,798.60803
789.7436,852.6007,823.9927,828.8278
766.3736,842.9304,808.68134,763.95605
738.1685,824.7985,789.7436,689.81683
736.1539,830.0366,789.7436,696.6667
767.1795,817.1429,809.89014,797.3993
790.14655,819.15753,823.5897,845.34796
776.4469,840.9158,810.293,778.86444
751.4652,837.28937,788.93774,679.34064
748.6447,823.5897,791.75824,678.1319
766.77655,830.84247,820.3663,780.87915
794.57874,834.87177,819.9634,807.47253
751.8681,814.3223,790.54944,679.7436
802.23444,840.5128,838.9011,853.4066
753.47986,817.1429,794.9817,712.7839
784.10254,833.663,808.2784,773.22345
809.89014,856.2271,827.619,854.61536
804.2491,841.7216,813.91943,823.9927
782.49084,809.4872,788.1319,738.97437
768.7912,794.9817,783.2967,702.71063
789.7436,798.60803,800.2198,783.2967
812.3077,809.0842,816.337,859.0476
800.6227,807.0696,808.2784,841.7216
778.86444,787.72894,784.10254,753.0769
770.40295,778.86444,782.49084,705.12823
824.7985,811.0989,809.0842,854.61536
799.011,797.8022,802.6374,768.7912
815.12823,842.52747,804.65204,857.8388
789.7436,830.0366,786.9231,767.1795
776.8498,789.7436,772.01465,707.5458
793.36993,802.23444,788.93774,769.19415
817.1429,814.7253,813.91943,864.68866
827.2161,805.05493,813.5165,878.7912
798.60803,782.8938,787.72894,783.69965
776.4469,767.1795,774.0293,718.022
791.75824,775.2381,796.1905,775.2381
815.5311,805.4579,813.1135,847.76556
819.5604,827.2161,809.0842,858.6447
801.02563,794.9817,790.54944,794.9817
786.52014,773.6264,774.43225,724.4689
785.7143,794.57874,787.72894,757.9121
813.1135,801.02563,813.1135,844.94507
822.381,795.38464,816.337,860.65936
786.9231,778.46155,798.20514,791.3553
771.2088,781.685,788.5348,728.49817
776.04395,796.99634,792.96704,730.9158
801.4286,794.57874,811.0989,822.381
823.5897,795.78754,821.978,881.6117
809.0842,792.96704,802.23444,804.65204
793.36993,776.8498,784.10254,726.08057
787.72894,768.3883,785.7143,749.0476
811.0989,807.8755,807.0696,834.0659
826.8132,822.381,819.5604,865.09155
811.0989,796.5934,807.0696,810.293
791.75824,789.7436,791.75824,734.1392
774.0293,777.6557,787.326,723.663
791.75824,787.72894,809.4872,803.44324
815.9341,810.293,826.4103,862.27106
803.8461,812.71063,811.0989,830.4396
782.49084,810.293,792.5641,756.7033
786.1172,805.4579,788.1319,739.7802
809.0842,792.1612,803.0403,807.47253
827.619,794.9817,821.978,866.30035
820.3663,819.9634,811.50183,841.31866
796.99634,828.4249,788.93774,767.5824
785.7143,792.1612,780.4762,724.0659
812.3077,801.4286,799.41394,797.8022
827.619,815.5311,815.12823,878.7912
812.71063,800.2198,809.89014,847.76556
801.02563,790.14655,793.7729,778.0586
780.07324,784.90845,777.25275,726.08057
809.0842,815.5311,812.3077,853.00366
817.1429,823.5897,816.7399,859.85345
799.41394,811.9048,800.6227,790.9524
789.7436,824.3956,783.2967,728.0952
801.02563,825.6044,796.1905,776.04395
782.8938,790.54944,789.7436,776.8498
811.50183,799.011,812.3077,851.39197
823.1868,805.05493,818.3516,853.8095
802.23444,798.20514,800.6227,777.6557
786.1172,791.75824,777.6557,718.022
794.57874,813.5165,793.7729,761.9414
812.3077,823.5897,820.7692,852.1978
822.7839,819.5604,821.1722,866.7033
803.8461,800.6227,801.4286,794.17584
776.4469,790.54944,785.31134,723.2601
779.67035,809.0842,794.57874,756.30035
803.0403,831.6484,815.9341,844.94507
814.7253,823.5897,815.5311,869.92676
810.293,803.8461,804.2491,808.2784
792.1612,778.86444,786.52014,727.28937
789.34064,785.31134,782.49084,737.76556
805.4579,800.6227,809.0842,825.2015
811.0989,796.5934,821.5751,871.9414
800.2198,791.75824,806.26373,823.5897
783.2967,778.86444,793.7729,746.63007
776.8498,784.5055,799.011,753.0769
794.57874,800.2198,812.3077,828.022
811.50183,809.4872,818.3516,865.09155
804.2491,822.7839,813.5165,844.1392
776.8498,803.44324,795.78754,765.16486
762.74725,773.6264,795.78754,718.8278
786.52014,786.9231,811.50183,797.3993
813.1135,812.3077,818.7546,873.95605
811.9048,792.1612,809.89014,854.61536
794.9817,768.3883,793.7729,770.40295
782.0879,767.5824,792.5641,734.1392
788.93774,770.40295,811.50183,797.8022
812.71063,786.52014,826.8132,867.50916
801.8315,789.34064,795.78754,773.6264
823.5897,796.99634,817.9487,851.39197
790.14655,801.4286,789.34064,733.73627
797.3993,818.7546,803.44324,796.99634
811.0989,811.0989,821.1722,857.8388
820.7692,800.2198,816.7399,846.9597
803.0403,783.2967,792.1612,770.80585
784.5055,782.49084,784.10254,723.663
804.2491,806.26373,803.8461,789.34064
832.8571,828.022,823.5897,863.8828
828.8278,812.3077,821.978,865.89746
797.3993,793.7729,787.326,738.1685
820.3663,830.84247,821.5751,854.61536
799.41394,803.44324,796.5934,770
826.0073,825.6044,828.022,891.685
784.5055,765.56775,794.9817,719.6337
789.7436,785.31134,805.8608,756.7033
816.7399,801.4286,822.7839,845.7509
805.8608,782.8938,810.696,810.696
816.337,797.8022,804.65204,798.60803
828.8278,801.8315,823.1868,877.5824
807.8755,802.23444,806.6667,825.6044
790.54944,795.38464,788.1319,748.24176
786.52014,812.3077,794.17584,754.68866
799.41394,815.5311,811.9048,823.9927
805.05493,802.23444,815.12823,853.4066
794.17584,826.0073,806.6667,805.05493
780.87915,814.7253,793.36993,739.7802
777.25275,787.72894,786.1172,740.989
794.9817,794.9817,807.47253,804.2491
818.7546,796.5934,823.9927,850.18317
810.696,792.1612,810.293,801.02563
790.14655,795.78754,790.54944,738.97437
781.685,786.9231,788.5348,732.1245
797.3993,784.10254,807.47253,795.78754
826.4103,811.9048,824.3956,861.06226
823.9927,817.5458,815.9341,834.87177
796.5934,796.99634,792.1612,756.7033
786.52014,813.91943,789.7436,732.52747
799.011,815.9341,803.44324,794.9817
814.7253,788.93774,812.71063,856.2271
821.1722,794.17584,810.293,837.28937
803.44324,796.99634,792.96704,771.6117
790.9524,784.5055,783.2967,733.73627
804.65204,789.34064,799.41394,808.2784
820.3663,802.6374,815.12823,875.9707
814.7253,796.5934,811.50183,840.10986
793.7729,793.36993,788.5348,763.95605
784.5055,788.1319,775.64105,718.022
792.5641,780.87915,788.5348,768.7912
809.0842,810.293,808.2784,843.73627
811.9048,822.381,807.8755,840.9158
800.2198,799.011,787.72894,761.53845
790.9524,784.90845,781.28204,709.9634
791.3553,776.4469,788.5348,753.0769
807.8755,784.90845,803.44324,820.7692
824.3956,794.9817,813.91943,840.5128
802.23444,797.3993,799.41394,784.90845
774.43225,791.75824,779.67035,717.619
784.10254,795.38464,788.1319,765.16486
805.4579,810.696,809.4872,840.9158
809.89014,813.91943,815.12823,859.0476
803.0403,821.1722,807.0696,813.5165
786.1172,795.38464,788.5348,733.3333
784.10254,766.77655,791.3553,749.45056
806.26373,784.90845,811.0989,835.2747
817.1429,817.5458,815.9341,870.32965
795.38464,823.1868,807.47253,819.9634
779.67035,796.5934,789.7436,742.6007
782.49084,790.9524,789.7436,743.8095
797.3993,802.23444,810.696,815.5311
811.50183,817.9487,820.7692,859.45056
800.2198,812.71063,807.8755,819.15753
781.28204,797.8022,794.17584,749.85345
774.83514,813.91943,794.17584,739.7802
803.0403,820.3663,805.8608,812.3077
814.7253,802.6374,815.12823,863.8828
796.5934,785.7143,806.6667,829.2308
778.46155,774.0293,786.52014,754.68866
764.35895,783.69965,786.52014,714.7985
783.69965,797.8022,804.65204,777.25275
801.8315,809.4872,815.5311,839.304
795.38464,807.8755,810.696,827.619
776.8498,782.0879,792.5641,754.68866
772.01465,774.83514,783.69965,708.7546
793.36993,786.1172,797.8022,773.22345
813.5165,823.9927,816.7399,843.73627
811.0989,821.5751,811.50183,840.9158
796.1905,776.4469,794.9817,765.56775
782.0879,774.83514,784.10254,713.9927
794.9817,804.2491,793.7729,772.8205
812.3077,821.5751,810.293,847.76556
814.7253,808.68134,811.50183,846.1539
804.2491,798.60803,793.36993,776.04395
782.8938,788.1319,779.2674,718.022
789.7436,788.93774,796.1905,770
815.12823,809.4872,806.6667,846.55676
823.1868,814.3223,806.6667,845.7509
801.02563,812.71063,795.78754,784.5055
781.28204,795.38464,781.28204,714.7985
791.3553,776.04395,791.75824,751.06226
828.022,792.1612,804.65204,848.5714
823.1868,797.3993,804.65204,854.61536
801.8315,778.86444,792.5641,788.93774
789.34064,772.01465,777.6557,720.0366
787.72894,782.0879,784.10254,725.6777
821.5751,799.41394,806.6667,820.7692
829.6337,819.5604,816.7399,863.8828
806.6667,817.9487,799.81683,801.4286
793.36993,792.1612,783.69965,738.1685
794.17584,801.4286,792.96704,746.63007
810.696,831.6484,807.8755,822.381
821.5751,819.9634,806.6667,873.95605
805.05493,796.1905,791.3553,821.5751
780.87915,791.75824,778.0586,737.76556
786.52014,779.2674,777.6557,733.73627
804.65204,778.46155,795.38464,802.23444
807.47253,809.89014,807.8755,846.55676
799.81683,803.44324,800.2198,818.3516
784.90845,774.43225,786.9231,742.1978
786.1172,783.2967,785.7143,717.619
802.23444,789.34064,800.2198,793.7729
813.1135,811.50183,809.0842,865.09155
811.50183,810.293,805.4579,844.5421
778.46155,788.1319,782.0879,718.4249
786.9231,780.87915,787.326,756.7033
796.99634,791.75824,798.20514,797.3993
814.3223,801.02563,808.68134,861.8681
813.91943,804.2491,805.05493,830.0366
791.75824,798.20514,790.9524,764.35895
788.93774,801.4286,799.011,775.64105
779.2674,792.96704,782.8938,719.6337
812.3077,815.9341,821.5751,845.34796
821.978,819.9634,820.3663,842.52747
796.5934,832.0513,797.3993,779.2674
785.31134,819.15753,787.326,716.8132
800.6227,797.8022,798.20514,756.30035
815.12823,816.7399,813.5165,848.97437
816.337,803.8461,814.3223,859.0476
800.2198,799.011,797.3993,790.54944
790.9524,798.60803,792.5641,726.8865
795.38464,783.69965,796.1905,756.30035
809.89014,799.81683,799.81683,830.0366
822.7839,809.89014,806.26373,857.8388
812.71063,801.4286,796.99634,808.2784
793.7729,789.34064,782.49084,739.3773
787.326,810.696,781.685,749.0476
826.8132,796.99634,809.89014,850.989
810.696,818.3516,799.011,821.5751
808.2784,801.8315,805.05493,809.89014
791.3553,791.75824,783.69965,743.8095
791.75824,787.72894,781.685,743.4066
815.12823,806.6667,806.6667,827.619
805.05493,807.47253,802.6374,821.1722
823.9927,821.1722,813.5165,875.56775
787.326,781.28204,788.93774,741.39197
788.1319,779.2674,788.5348,737.3626
812.3077,799.41394,811.50183,815.9341
824.7985,832.0513,828.022,871.53845
813.91943,823.9927,814.3223,830.0366
790.9524,780.4762,793.36993,749.0476
780.4762,777.25275,794.17584,727.28937
809.4872,803.0403,814.7253,821.978
824.3956,813.5165,821.978,873.95605
814.3223,808.68134,812.71063,830.4396
789.34064,784.5055,794.9817,756.7033
770.80585,776.04395,784.10254,725.2747
790.54944,783.2967,798.60803,799.011
815.9341,803.0403,815.9341,862.674
819.15753,822.7839,810.293,833.2601
804.65204,822.381,795.38464,764.7619
780.87915,805.8608,783.2967,732.9304
786.9231,782.8938,794.57874,772.01465
803.0403,791.75824,813.91943,831.2454
807.0696,803.0403,807.0696,839.304
786.52014,792.96704,788.93774,769.59705
762.74725,777.6557,778.46155,712.381
780.07324,786.52014,795.78754,775.2381
792.5641,792.1612,796.5934,790.14655
771.2088,788.5348,780.87915,730.5128
806.26373,801.02563,816.337,859.45056
805.8608,802.23444,815.12823,858.24176
772.01465,812.3077,794.57874,750.65936
805.05493,840.9158,814.7253,835.2747
813.5165,826.0073,812.3077,856.2271
793.7729,789.34064,790.9524,787.72894
776.8498,784.90845,778.46155,729.304
780.4762,795.38464,792.96704,750.2564
792.1612,798.60803,812.71063,826.8132
802.6374,794.17584,817.1429,869.12085
779.2674,778.86444,791.3553,734.94507
784.5055,780.07324,794.17584,763.1502
797.8022,785.7143,803.0403,807.0696
809.4872,795.78754,809.89014,842.9304
823.5897,832.0513,824.7985,869.5238
808.2784,831.6484,809.4872,815.5311
786.9231,790.9524,787.326,742.6007
780.07324,795.38464,786.9231,736.1539
804.65204,814.7253,802.6374,823.1868
825.6044,811.9048,817.5458,872.74725
810.293,807.0696,807.0696,804.65204
787.72894,796.5934,784.90845,738.1685
782.8938,792.96704,780.07324,739.7802
818.3516,811.50183,823.9927,873.5531
807.0696,807.47253,811.0989,836.08057
785.7143,813.91943,794.9817,753.8828
780.87915,802.23444,788.93774,736.9597
802.6374,808.68134,807.0696,806.26373
799.41394,779.2674,801.02563,803.44324
812.71063,792.5641,817.9487,865.89746
805.4579,805.8608,815.9341,839.707
788.93774,799.011,799.41394,758.71796
789.34064,819.5604,800.6227,738.1685
810.696,818.7546,815.5311,801.8315
827.619,814.7253,819.9634,852.1978
826.0073,815.12823,815.9341,849.7802
803.44324,803.8461,799.41394,778.46155
781.28204,796.1905,792.5641,736.9597
786.1172,817.1429,808.2784,787.326
829.2308,833.2601,826.8132,850.989
827.619,815.12823,826.0073,852.1978
784.5055,797.3993,804.2491,778.46155
773.6264,769.19415,789.34064,714.7985
784.90845,770,800.6227,757.1062
806.26373,793.7729,817.5458,832.4542
792.5641,807.47253,803.8461,782.8938
778.86444,810.696,791.3553,724.0659
809.4872,796.1905,817.5458,839.304
781.28204,799.81683,797.8022,762.74725
796.99634,807.8755,813.91943,832.8571
811.50183,836.08057,823.5897,859.85345
800.6227,824.7985,810.696,821.978
782.49084,788.1319,786.9231,755.89746
789.7436,800.2198,795.78754,765.9707
812.3077,815.5311,818.7546,852.1978
819.9634,809.89014,824.7985,875.56775
800.6227,799.011,807.8755,812.3077
782.49084,782.8938,784.5055,734.5421
777.6557,786.52014,789.34064,732.9304
826.4103,812.3077,832.8571,868.315
803.0403,804.65204,817.1429,820.3663
810.696,816.337,815.5311,823.1868
788.1319,813.1135,792.1612,748.24176
775.64105,801.02563,789.34064,735.34796
807.0696,799.011,813.5165,827.2161
788.93774,789.7436,805.05493,808.2784
809.4872,797.8022,818.7546,864.68866
784.5055,788.5348,790.54944,763.5531
786.1172,781.28204,785.7143,748.6447
804.2491,792.96704,806.6667,801.02563
806.6667,809.89014,820.7692,854.21246
801.8315,804.2491,811.50183,827.619
778.0586,796.5934,788.1319,746.63007
774.0293,805.4579,784.5055,720.84247
805.4579,825.6044,805.05493,788.93774
816.7399,840.9158,816.7399,850.989
809.0842,813.1135,810.293,833.663
793.36993,782.49084,793.7729,763.95605
773.22345,772.8205,782.0879,726.08057
811.50183,811.9048,817.5458,833.663
788.1319,792.1612,800.2198,776.4469
813.5165,797.3993,808.2784,844.94507
788.93774,781.685,790.9524,788.93774
790.9524,790.14655,791.75824,761.53845
774.43225,779.2674,782.49084,722.0513
805.8608,794.9817,809.0842,845.34796
790.9524,808.68134,797.3993,777.25275
776.04395,781.28204,794.9817,753.47986
806.6667,813.91943,816.337,847.76556
773.22345,773.22345,785.31134,728.9011
807.0696,807.47253,805.05493,831.6484
818.7546,801.4286,811.50183,856.63007
797.8022,789.34064,796.1905,794.17584
780.07324,784.10254,779.2674,722.8571
804.2491,797.8022,809.0842,826.8132
780.87915,783.69965,784.10254,744.21246
790.9524,801.8315,795.78754,799.011
777.25275,811.50183,784.90845,744.21246
774.0293,810.696,788.5348,749.45056
805.05493,801.02563,815.5311,848.1685
815.12823,804.65204,822.381,857.4359
803.8461,796.99634,806.26373,813.5165
786.1172,770.40295,786.1172,736.55676
805.4579,801.02563,811.0989,818.3516
772.01465,767.1795,783.2967,726.8865
792.5641,790.9524,801.4286,813.1135
802.6374,797.3993,811.50183,855.82416
771.2088,795.38464,788.5348,743.4066
767.1795,785.7143,781.28204,726.08057
778.0586,794.57874,801.8315,792.1612
790.14655,794.9817,806.6667,812.3077
798.60803,818.7546,818.3516,865.4945
808.2784,801.02563,807.0696,848.1685
788.93774,788.5348,784.10254,748.24176
775.64105,796.5934,780.4762,718.4249
795.78754,797.8022,803.8461,798.20514
815.12823,803.0403,815.12823,857.4359
805.05493,794.9817,807.47253,827.619
789.7436,796.5934,792.1612,747.8388
782.49084,831.6484,786.1172,720.4396
797.8022,828.022,797.8022,780.87915
817.5458,803.0403,815.12823,844.5421
814.3223,811.9048,820.7692,859.85345
791.75824,805.4579,797.8022,779.2674
781.28204,785.31134,783.2967,727.6923
798.60803,794.9817,798.60803,794.57874
819.15753,801.02563,813.91943,849.3773
809.89014,793.7729,814.7253,846.55676
792.1612,789.34064,801.8315,781.685
785.31134,796.1905,792.5641,727.28937
781.28204,806.26373,799.81683,760.7326
798.60803,814.3223,814.7253,838.0952
814.7253,813.91943,820.7692,859.45056
800.6227,803.44324,806.26373,796.1905
772.01465,810.293,790.9524,731.31866
778.46155,809.89014,791.3553,759.12085
806.26373,796.99634,804.2491,841.31866
807.0696,809.89014,809.4872,860.2564
794.17584,805.4579,796.99634,795.78754
787.72894,781.685,782.49084,730.5128
784.10254,783.69965,784.10254,745.0183
800.6227,811.0989,807.8755,831.6484
810.696,811.50183,815.12823,857.8388
784.5055,788.5348,777.6557,737.3626
790.54944,790.14655,782.0879,730.10986
810.293,823.1868,805.05493,817.1429
807.47253,807.0696,806.6667,813.91943
815.5311,832.0513,816.337,856.2271
783.69965,782.0879,783.69965,745.42126
781.685,780.87915,781.685,731.7216
798.20514,794.57874,801.4286,796.1905
799.011,798.60803,796.1905,816.337
807.8755,805.8608,812.3077,865.89746
799.41394,802.6374,802.6374,826.4103
781.28204,794.57874,785.31134,736.1539
774.0293,790.54944,786.1172,728.0952
783.69965,787.72894,811.9048,786.52014
803.8461,790.14655,824.7985,846.1539
805.4579,814.7253,815.12823,843.73627
779.67035,812.71063,798.60803,762.74725
778.86444,782.0879,786.52014,728.9011
802.23444,788.1319,808.2784,794.17584
801.02563,818.7546,828.4249,850.18317
794.9817,830.4396,820.7692,843.3333
787.72894,803.8461,801.02563,764.7619
776.04395,789.34064,789.7436,714.7985
784.5055,808.2784,804.2491,769.19415
803.8461,822.381,821.978,840.9158
803.0403,819.5604,825.6044,855.0183
790.54944,821.978,805.05493,776.8498
781.28204,830.84247,787.72894,721.2454
778.46155,816.337,799.011,755.89746
792.5641,796.5934,821.978,819.9634
791.3553,804.65204,827.2161,839.304
770.80585,801.02563,809.89014,782.49084
756.7033,791.75824,792.5641,718.8278
768.3883,805.05493,807.47253,752.27106
794.57874,836.08057,832.4542,838.9011
806.6667,825.6044,828.4249,856.2271
803.8461,794.57874,809.4872,813.1135
771.6117,802.6374,803.8461,737.3626
764.7619,823.5897,809.0842,729.707
804.2491,837.6923,817.1429,813.91943
817.5458,825.6044,824.7985,862.27106
812.3077,786.9231,818.7546,816.7399
792.96704,764.35895,801.02563,736.9597
772.8205,769.19415,794.57874,737.3626
792.1612,809.4872,821.1722,815.12823
809.4872,813.1135,836.08057,860.2564
795.38464,783.2967,813.1135,811.50183
779.2674,771.6117,792.5641,732.1245
778.86444,792.5641,791.75824,742.6007
789.34064,828.4249,808.2784,807.8755
804.2491,826.8132,818.3516,841.7216
794.9817,838.49817,814.7253,826.0073
773.6264,821.5751,791.3553,749.0476
769.19415,776.4469,777.25275,712.381
790.9524,778.86444,798.20514,791.75824
804.65204,789.34064,813.91943,839.304
798.20514,790.9524,805.8608,819.5604
782.49084,782.49084,788.5348,764.35895
772.01465,781.685,782.8938,718.8278
786.9231,805.05493,794.9817,780.4762
807.8755,815.12823,813.91943,861.8681
809.89014,808.2784,817.5458,871.53845
783.2967,797.8022,790.9524,786.1172
770.40295,805.05493,776.4469,720.0366
790.14655,824.7985,791.75824,781.685
804.2491,800.2198,802.6374,842.52747
804.65204,778.46155,799.81683,834.0659
787.72894,776.8498,781.28204,775.2381
770,766.77655,775.64105,726.4835
784.90845,780.4762,790.9524,768.3883
799.41394,801.4286,806.6667,837.6923
800.2198,809.89014,810.293,846.9597
796.1905,802.23444,793.36993,785.7143
786.1172,788.93774,772.01465,726.08057
786.52014,792.1612,777.25275,748.24176
808.68134,822.381,802.23444,827.2161
820.3663,836.08057,811.0989,853.4066
805.4579,817.9487,797.3993,802.23444
792.1612,799.41394,781.685,730.9158
793.7729,779.67035,785.31134,737.76556
808.68134,793.7729,806.6667,816.7399
826.8132,809.0842,812.71063,846.9597
809.4872,796.99634,803.0403,800.2198
786.1172,773.6264,781.28204,733.3333
791.75824,776.4469,779.2674,743.00366
804.65204,795.78754,801.4286,827.2161
821.978,796.99634,811.50183,869.12085
813.5165,815.9341,802.6374,812.71063
786.1172,816.337,782.0879,746.2271
780.07324,772.4176,772.01465,740.989
800.6227,778.86444,798.60803,802.6374
815.12823,809.89014,816.337,857.4359
801.8315,824.3956,802.23444,828.8278
781.28204,804.2491,786.52014,758.315
779.2674,792.1612,781.685,732.1245
802.6374,811.0989,805.4579,800.6227
823.5897,816.337,822.7839,863.47986
819.5604,809.89014,813.1135,836.08057
801.8315,801.8315,789.7436,774.0293
793.7729,815.9341,784.10254,740.989
804.2491,824.3956,800.6227,796.5934
820.7692,807.0696,813.91943,859.45056
816.337,812.3077,811.50183,842.52747
795.38464,807.47253,797.8022,793.36993
787.72894,796.5934,791.3553,741.79486
805.8608,788.5348,801.02563,775.64105
824.3956,798.20514,813.5165,855.42126
817.5458,820.3663,813.91943,845.34796
799.011,806.6667,795.38464,787.72894
783.2967,787.326,780.87915,734.1392
790.54944,784.10254,789.34064,761.13556
811.9048,809.4872,810.293,842.1245
815.9341,820.3663,811.9048,854.21246
803.0403,789.34064,789.7436,789.34064
795.38464,772.4176,781.685,731.7216
801.8315,776.4469,792.1612,766.77655
814.3223,803.44324,813.1135,843.73627
820.3663,817.1429,819.5604,869.12085
803.44324,796.5934,795.78754,801.02563
782.49084,780.87915,775.2381,728.0952
789.34064,800.2198,787.326,753.47986
811.0989,822.7839,808.68134,838.0952
819.5604,801.02563,815.5311,865.4945
803.0403,805.05493,807.0696,811.50183
794.17584,812.71063,785.31134,742.6007
792.1612,781.28204,782.0879,742.6007
802.23444,785.7143,802.6374,815.5311
812.3077,801.02563,809.4872,857.03296
792.96704,784.5055,794.9817,815.12823
778.86444,757.1062,779.2674,737.3626
780.4762,781.28204,782.49084,738.5714
797.8022,815.5311,803.8461,824.3956
817.5458,816.7399,818.7546,864.2857
811.50183,818.3516,813.91943,829.6337
784.10254,804.65204,788.5348,752.27106
780.4762,803.0403,785.31134,723.663
806.6667,820.3663,813.5165,804.65204
816.337,803.0403,823.1868,863.8828
810.293,775.2381,807.47253,830.4396
793.36993,769.19415,786.1172,763.1502
791.75824,776.04395,785.31134,736.55676
811.0989,793.36993,807.47253,799.011
820.7692,801.02563,816.7399,863.47986
816.337,796.99634,808.68134,841.31866
794.9817,793.36993,796.99634,777.25275
779.2674,788.93774,786.52014,738.1685
801.4286,797.3993,800.2198,785.7143
822.7839,830.4396,820.3663,850.58606
825.6044,832.0513,813.5165,833.663
810.293,799.41394,788.93774,769.19415
787.326,797.8022,778.0586,723.663
802.23444,794.9817,788.93774,770.40295
819.15753,796.99634,815.9341,847.76556
813.5165,803.44324,816.337,859.0476
794.9817,796.99634,789.7436,792.1612
780.07324,794.9817,782.0879,732.1245
783.69965,805.8608,797.3993,755.89746
802.6374,823.1868,817.5458,831.2454
809.4872,820.3663,818.7546,857.4359
788.5348,802.6374,803.8461,794.9817
778.46155,800.6227,794.57874,727.28937
781.28204,792.1612,791.75824,741.39197
802.6374,793.7729,807.0696,834.4689
815.5311,799.41394,814.7253,862.674
801.02563,799.011,800.2198,800.2198
776.8498,795.38464,787.326,739.3773
773.6264,782.49084,790.14655,743.8095
805.4579,793.36993,810.696,823.1868
818.3516,804.65204,822.7839,853.00366
807.0696,809.89014,807.0696,796.99634
787.326,801.4286,786.9231,744.21246
782.0879,819.5604,790.54944,738.97437
801.4286,836.8865,810.696,800.6227
810.293,803.44324,815.9341,848.5714
813.1135,790.14655,797.8022,826.0073
792.1612,782.49084,785.31134,750.65936
775.2381,774.0293,788.1319,730.5128
793.36993,782.49084,800.6227,802.6374
806.26373,786.9231,811.50183,855.82416
803.44324,798.20514,803.0403,825.6044
780.87915,786.1172,781.28204,745.0183
770,772.01465,774.43225,717.2161
779.67035,788.1319,797.3993,774.0293
795.38464,815.9341,817.1429,824.3956
796.1905,826.4103,809.89014,822.7839
785.31134,802.6374,796.1905,797.3993
794.57874,792.5641,789.7436,764.35895
800.2198,790.9524,795.38464,782.8938
801.02563,805.05493,806.6667,838.0952
799.41394,817.1429,808.68134,845.34796
789.7436,803.8461,796.1905,784.90845
787.326,804.2491,790.14655,736.1539
782.8938,793.36993,790.54944,761.13556
800.2198,808.2784,814.3223,827.619
789.7436,806.6667,799.41394,794.17584
785.7143,808.68134,783.69965,755.09155
791.75824,800.2198,805.05493,811.9048
785.7143,780.07324,787.326,770.40295
785.31134,770.80585,803.0403,809.89014
787.72894,800.2198,811.0989,825.2015
794.57874,820.7692,803.0403,796.99634
801.02563,794.17584,791.75824,761.53845
799.41394,784.90845,800.2198,777.25275
802.6374,803.8461,824.3956,823.5897
804.65204,806.6667,827.619,838.49817
796.5934,798.20514,801.8315,802.23444
790.14655,797.3993,786.9231,756.7033
791.3553,817.5458,792.1612,753.8828
790.9524,837.28937,811.9048,796.5934
792.5641,817.9487,819.15753,820.3663
793.36993,791.75824,807.8755,813.5165
774.43225,782.49084,792.96704,753.0769
767.1795,787.72894,792.1612,732.1245
774.0293,799.81683,811.9048,786.52014
772.01465,804.65204,821.5751,805.4579
777.25275,806.26373,813.5165,796.99634
781.28204,802.6374,797.8022,759.5238
787.72894,796.99634,797.8022,746.63007
792.5641,792.5641,813.1135,782.49084
786.1172,825.6044,823.1868,804.2491
784.5055,831.6484,815.5311,811.0989
789.7436,782.0879,796.99634,779.67035
786.9231,784.90845,796.1905,747.8388
793.36993,788.5348,805.8608,790.9524
799.81683,775.64105,813.5165,835.6777
794.57874,786.52014,813.91943,821.978
796.1905,788.5348,792.5641,778.86444
794.57874,785.31134,782.8938,746.63007
791.75824,795.78754,803.44324,782.0879
793.7729,800.2198,818.3516,831.6484
788.5348,788.1319,817.1429,829.6337
789.34064,792.96704,805.05493,782.8938
793.7729,793.7729,793.7729,756.30035
790.54944,787.326,797.8022,776.04395
788.93774,794.17584,811.50183,817.9487
794.17584,802.6374,809.89014,835.2747
797.8022,800.2198,794.57874,791.3553
798.20514,809.0842,796.1905,758.315
804.2491,813.91943,807.8755,782.49084
803.0403,808.2784,813.91943,820.3663
799.011,803.44324,816.7399,833.663
803.44324,794.17584,809.0842,792.5641
793.7729,790.9524,796.1905,747.03296
789.34064,819.5604,806.6667,776.8498
796.99634,832.8571,816.7399,810.293
797.3993,795.78754,811.9048,818.3516
796.5934,774.83514,810.696,799.011
791.75824,778.0586,791.75824,751.4652
789.34064,786.9231,788.1319,761.13556
802.6374,799.81683,805.8608,805.4579
805.05493,805.8608,810.293,828.8278
792.1612,815.12823,803.8461,808.2784
796.5934,806.6667,790.54944,755.4945
791.75824,786.9231,782.49084,757.50916
797.3993,794.17584,801.8315,799.011
809.4872,810.293,814.7253,826.8132
809.4872,800.6227,799.011,819.5604
804.2491,773.22345,783.69965,762.74725
798.20514,773.6264,782.49084,748.6447
798.60803,792.96704,799.011,801.02563
803.8461,810.293,809.4872,840.10986
803.44324,797.8022,807.0696,819.9634
802.6374,793.7729,795.38464,772.01465
799.011,797.3993,795.78754,766.77655
796.1905,800.2198,808.2784,799.011
804.65204,804.2491,811.9048,836.08057
807.8755,807.0696,809.0842,842.9304
809.4872,814.7253,800.2198,803.8461
807.0696,807.0696,790.9524,759.5238
799.81683,780.07324,795.78754,775.2381
796.5934,765.9707,806.26373,819.5604
799.41394,771.6117,806.6667,831.2454
788.93774,784.10254,788.5348,747.4359
790.54944,779.2674,794.57874,780.87915
795.78754,787.72894,792.5641,779.67035
786.9231,788.5348,801.02563,811.50183
793.36993,797.8022,806.6667,825.6044
798.20514,801.02563,792.5641,789.34064
787.72894,795.78754,779.2674,747.03296
790.14655,815.12823,790.14655,772.8205
802.23444,837.6923,806.6667,810.696
806.26373,818.3516,810.696,842.52747
801.8315,782.49084,789.7436,804.2491
797.3993,770,772.4176,743.00366
794.57874,770.80585,784.10254,768.7912
796.1905,776.8498,797.3993,810.696
803.0403,794.9817,803.8461,831.2454
796.5934,801.02563,797.8022,800.2198
786.1172,792.5641,781.28204,743.00366
789.7436,795.38464,780.07324,757.50916
803.44324,806.6667,800.6227,819.9634
809.4872,836.08057,809.0842,845.34796
800.2198,825.6044,792.5641,808.68134
798.20514,780.4762,779.67035,758.315
794.17584,776.4469,780.07324,762.74725
791.75824,789.7436,794.17584,809.0842
792.96704,787.326,805.4579,830.0366
784.90845,775.64105,794.17584,803.44324
780.07324,772.8205,775.64105,747.4359
779.2674,779.2674,780.07324,742.6007
796.1905,788.5348,799.41394,800.6227
804.65204,797.8022,809.89014,839.304
801.8315,808.2784,806.6667,830.84247
791.75824,832.0513,796.1905,770.40295
782.0879,820.7692,787.326,750.65936
792.1612,794.57874,798.20514,794.9817
790.54944,792.96704,807.8755,822.7839
794.17584,807.0696,806.6667,832.0513
792.1612,807.8755,796.99634,788.93774
790.9524,792.1612,787.326,742.6007
798.20514,804.65204,801.02563,789.34064
806.6667,802.23444,813.5165,846.9597
802.23444,797.3993,789.34064,770
812.71063,790.14655,803.0403,828.4249
791.3553,796.99634,788.5348,748.6447
799.41394,810.696,801.8315,795.78754
802.23444,814.3223,813.5165,833.2601
790.9524,781.685,811.9048,834.87177
791.3553,774.83514,800.2198,791.75824
791.75824,784.90845,790.54944,749.0476
796.99634,784.90845,801.4286,775.2381
806.26373,794.57874,816.7399,837.28937
812.3077,806.6667,819.9634,852.1978
808.68134,800.6227,803.44324,794.9817
803.0403,808.68134,782.0879,745.82416
798.20514,808.68134,792.1612,753.47986
793.36993,792.96704,807.0696,808.68134
790.9524,808.68134,809.0842,834.4689
797.3993,806.26373,798.60803,795.78754
801.02563,780.07324,784.90845,752.27106
796.99634,790.54944,797.3993,767.98535
796.99634,798.60803,809.4872,815.9341
797.8022,793.7729,804.2491,832.4542
798.20514,801.4286,800.6227,808.68134
790.54944,784.10254,790.14655,765.9707
811.50183,817.5458,821.978,840.10986
808.2784,814.3223,813.91943,820.3663
792.1612,794.57874,787.326,770
799.011,817.1429,792.5641,768.3883
804.65204,804.2491,809.0842,806.6667
787.72894,819.9634,795.38464,752.674
796.5934,798.20514,803.8461,790.54944
802.23444,780.4762,804.2491,827.619
793.7729,779.67035,801.8315,815.5311
793.7729,775.2381,794.57874,766.3736
795.78754,782.0879,793.7729,751.4652
805.8608,796.5934,807.0696,807.0696
811.9048,799.41394,819.5604,846.55676
805.05493,791.3553,814.7253,821.1722
797.8022,786.1172,791.3553,778.46155
797.8022,790.14655,785.7143,755.4945
799.81683,818.3516,806.26373,788.93774
801.4286,826.0073,813.91943,826.0073
802.6374,804.2491,808.2784,817.5458
796.1905,792.5641,796.99634,775.2381
792.1612,784.5055,789.7436,744.21246
803.44324,793.36993,798.60803,779.67035
806.6667,807.8755,808.68134,822.381
795.78754,813.91943,808.68134,818.7546
791.3553,800.2198,797.8022,784.5055
794.17584,782.0879,788.5348,752.27106
792.96704,799.41394,799.41394,767.5824
786.1172,811.9048,808.2784,814.3223
792.1612,823.9927,805.05493,831.6484
792.1612,817.1429,794.57874,790.14655
782.49084,786.1172,784.10254,743.00366
780.87915,777.6557,789.7436,754.2857
796.1905,796.5934,803.8461,820.3663
801.02563,821.5751,811.0989,837.6923
790.14655,809.89014,799.41394,795.38464
790.14655,794.17584,784.90845,753.0769
789.34064,790.54944,788.1319,749.85345
787.72894,795.38464,805.05493,806.26373
787.326,806.26373,812.71063,834.87177
786.52014,807.47253,806.6667,799.011
782.49084,813.1135,796.99634,760.32965
783.69965,811.9048,793.36993,756.7033
791.3553,793.7729,803.44324,802.6374
794.57874,796.1905,813.1135,843.73627
794.17584,793.36993,806.6667,811.9048
785.7143,784.90845,788.93774,752.27106
784.10254,779.67035,785.7143,743.8095
796.1905,794.17584,803.8461,793.7729
799.81683,811.0989,815.5311,823.9927
801.8315,812.71063,816.337,837.28937
781.685,768.3883,788.5348,756.30035
783.2967,803.8461,798.60803,799.41394
788.93774,781.28204,800.6227,760.32965
787.326,811.0989,810.293,807.8755
789.7436,790.9524,812.3077,805.8608
784.90845,792.1612,799.41394,763.5531
784.90845,791.3553,795.38464,752.27106
790.54944,794.57874,809.0842,799.81683
790.54944,811.0989,810.696,821.5751
792.96704,815.12823,811.9048,814.3223
786.9231,808.68134,799.41394,762.74725
786.1172,826.8132,797.3993,766.3736
783.69965,822.381,806.26373,811.9048
783.2967,813.5165,787.326,728.9011
784.5055,827.2161,808.2784,820.7692
778.86444,819.5604,794.17584,792.96704
780.4762,783.2967,780.87915,749.85345
783.69965,783.2967,796.1905,763.95605
783.2967,805.8608,817.5458,821.5751
785.7143,811.50183,817.1429,823.9927
774.0293,795.78754,796.1905,772.01465
768.7912,791.75824,784.10254,736.55676
790.54944,814.3223,805.8608,807.0696
803.0403,807.0696,806.26373,804.2491
797.3993,811.9048,819.15753,836.4835
780.4762,807.47253,790.14655,763.5531
799.81683,807.0696,791.3553,748.24176
801.4286,818.7546,801.02563,777.6557
804.65204,809.89014,814.7253,827.2161
807.0696,795.38464,812.3077,839.707
803.8461,801.4286,797.8022,802.6374
792.96704,800.2198,781.685,748.24176
795.38464,793.7729,786.52014,747.03296
803.44324,806.6667,803.44324,796.1905
802.6374,812.3077,807.47253,833.2601
809.0842,803.0403,806.26373,807.0696
802.6374,792.96704,796.1905,756.30035
790.54944,792.5641,788.93774,748.6447
803.44324,814.3223,798.60803,796.5934
818.3516,825.6044,815.5311,842.9304
809.89014,817.1429,815.12823,828.4249
805.05493,813.1135,796.1905,781.685
802.23444,799.81683,792.5641,768.3883
801.8315,792.5641,806.26373,811.50183
801.8315,796.99634,813.5165,847.76556
800.6227,802.6374,812.71063,826.4103
801.4286,798.60803,800.6227,773.6264
793.7729,782.49084,792.5641,762.74725
799.41394,788.93774,809.89014,807.0696
815.5311,808.68134,823.5897,852.6007
817.9487,823.1868,824.3956,854.61536
809.4872,813.5165,807.0696,789.7436
807.8755,791.3553,789.34064,754.2857
808.68134,795.38464,803.8461,796.99634
813.91943,803.44324,821.5751,842.9304
812.71063,824.7985,825.2015,851.79486
804.2491,824.7985,810.696,799.81683
800.2198,798.20514,796.99634,749.45056
796.99634,793.36993,811.50183,799.011
807.8755,803.44324,823.5897,853.4066
806.6667,803.8461,816.337,830.4396
797.3993,799.011,807.47253,782.8938
799.41394,811.50183,796.99634,749.45056
804.65204,826.0073,801.8315,780.07324
806.26373,819.15753,819.5604,830.84247
811.9048,813.5165,818.3516,843.3333
809.89014,806.26373,801.4286,813.5165
801.02563,789.7436,788.5348,765.16486
800.6227,780.4762,790.9524,774.0293
799.81683,801.4286,810.293,826.0073
801.4286,813.1135,816.7399,844.1392
798.60803,793.7729,803.44324,809.4872
796.1905,797.8022,795.38464,776.4469
794.9817,795.78754,789.34064,763.5531
805.05493,821.5751,818.3516,824.3956
812.3077,831.2454,821.1722,846.9597
809.0842,798.60803,799.81683,822.7839
801.4286,789.7436,788.5348,769.59705
798.20514,797.8022,798.60803,754.68866
805.05493,803.0403,811.9048,798.20514
804.2491,796.1905,811.0989,830.4396
797.8022,788.1319,805.8608,811.0989
794.9817,783.69965,801.4286,772.4176
790.9524,781.685,791.75824,753.47986
796.99634,800.2198,802.6374,795.78754
810.293,818.3516,819.5604,841.31866
817.9487,824.7985,817.9487,828.8278
796.99634,794.57874,801.4286,774.0293
785.31134,765.9707,792.96704,765.16486
794.17584,781.685,804.65204,798.20514
798.60803,787.326,811.50183,822.7839
803.0403,793.36993,810.293,815.9341
790.54944,800.6227,802.6374,772.01465
788.5348,800.2198,794.57874,749.85345
795.78754,799.41394,798.60803,790.9524
801.4286,803.0403,812.3077,847.3626
805.8608,811.0989,815.5311,852.1978
796.99634,805.4579,803.0403,790.9524
789.7436,813.5165,791.75824,746.2271
787.326,843.73627,796.99634,774.43225
795.38464,828.4249,807.8755,819.15753
801.8315,804.2491,812.3077,844.1392
799.81683,791.3553,799.011,797.8022
786.9231,778.86444,775.2381,739.7802
786.9231,786.9231,784.90845,775.2381
803.44324,799.81683,803.0403,828.8278
805.05493,815.5311,807.47253,838.49817
799.81683,809.0842,796.99634,794.17584
791.75824,790.9524,786.1172,745.42126
796.5934,787.326,792.1612,763.5531
809.4872,820.7692,808.68134,825.2015
807.8755,834.4689,815.5311,843.3333
805.4579,790.54944,797.3993,805.4579
798.60803,794.17584,785.31134,761.9414
791.75824,800.2198,785.7143,762.3443
792.96704,789.34064,793.7729,809.4872
802.23444,805.4579,806.26373,837.28937
802.6374,807.8755,802.6374,813.91943
786.52014,788.93774,788.93774,757.1062
796.1905,803.8461,806.26373,807.47253
795.38464,809.89014,812.71063,832.4542
792.5641,821.978,806.6667,817.1429
790.14655,813.1135,795.38464,768.3883
783.69965,793.36993,792.1612,757.9121
783.2967,790.9524,800.6227,809.0842
792.1612,788.5348,815.9341,846.9597
794.9817,799.41394,811.0989,834.0659
787.72894,800.6227,796.5934,768.3883
784.5055,790.54944,785.7143,762.3443
785.7143,783.69965,792.96704,747.4359
791.75824,792.5641,796.1905,791.75824
799.41394,815.9341,810.696,832.8571
801.4286,819.9634,810.293,823.1868
793.36993,807.0696,789.34064,767.1795
788.93774,816.337,786.1172,745.42126
798.20514,819.5604,804.2491,795.78754
804.2491,795.78754,816.7399,838.9011
804.2491,794.17584,812.71063,837.28937
798.60803,799.81683,796.1905,787.326
793.36993,795.78754,787.326,748.6447
794.9817,798.60803,803.0403,778.86444
803.0403,811.9048,815.5311,824.3956
811.0989,830.0366,815.12823,856.2271
810.696,826.0073,799.81683,800.2198
795.38464,798.20514,782.0879,741.79486
803.8461,794.57874,796.1905,767.1795
809.89014,833.663,811.0989,814.3223
800.2198,841.7216,808.2784,831.6484
795.38464,794.17584,792.96704,790.14655
796.99634,786.1172,779.67035,747.4359
809.4872,796.5934,792.1612,772.01465
814.7253,791.3553,809.89014,828.022
812.3077,788.93774,809.89014,828.8278
804.2491,782.8938,794.57874,789.7436
794.9817,779.67035,782.8938,744.61536
788.1319,790.14655,791.75824,751.8681
799.81683,818.7546,807.8755,811.0989
804.2491,821.5751,809.4872,840.10986
795.38464,814.3223,801.8315,813.91943
802.6374,817.1429,793.7729,753.47986
797.8022,792.1612,794.57874,744.61536
791.75824,780.07324,805.8608,797.8022
801.02563,790.9524,812.3077,837.28937
805.4579,801.4286,806.6667,814.7253
799.41394,799.81683,791.3553,757.50916
801.02563,806.26373,794.57874,755.4945
805.4579,815.9341,810.696,812.71063
798.20514,814.7253,815.12823,841.31866
798.20514,806.6667,809.0842,826.0073
796.5934,803.0403,793.36993,772.01465
797.8022,809.89014,793.7729,757.1062
796.99634,821.1722,807.8755,819.5604
804.65204,821.5751,813.1135,848.1685
806.6667,796.1905,804.65204,816.7399
797.3993,782.49084,794.17584,759.12085
791.75824,793.7729,792.96704,734.5421
792.1612,802.23444,804.2491,775.2381
803.0403,798.60803,813.91943,821.5751
800.6227,801.4286,806.26373,829.2308
792.5641,800.2198,790.9524,777.6557
786.9231,793.7729,785.7143,739.3773
780.87915,793.7729,797.8022,774.83514
792.5641,818.3516,816.337,819.9634
801.4286,823.1868,821.978,829.6337
797.8022,787.326,805.4579,790.9524
802.23444,790.9524,787.72894,746.63007
797.3993,812.71063,796.1905,768.3883
801.8315,812.3077,813.91943,834.87177
808.2784,820.3663,813.5165,842.1245
799.81683,811.0989,801.02563,790.9524
787.72894,796.99634,793.36993,751.06226
791.3553,807.8755,802.6374,772.4176
802.6374,822.381,814.3223,823.9927
801.8315,813.5165,814.3223,837.6923
799.81683,817.9487,805.4579,804.2491
792.1612,810.293,786.52014,755.4945
794.9817,775.2381,786.1172,765.16486
807.8755,799.41394,811.9048,822.381
796.1905,791.75824,797.8022,794.17584
794.17584,803.44324,793.36993,751.4652
801.8315,809.4872,814.7253,835.6777
791.75824,807.8755,796.1905,756.30035
803.44324,800.6227,805.05493,810.293
811.9048,796.99634,816.337,845.7509
809.89014,790.54944,799.81683,810.293
803.8461,790.9524,784.90845,753.47986
803.0403,821.5751,796.1905,764.35895
803.8461,831.6484,813.1135,814.7253
802.23444,806.26373,816.7399,834.0659
802.23444,796.1905,807.47253,813.1135
792.5641,780.87915,790.54944,757.9121
789.7436,783.69965,788.1319,748.24176
794.9817,790.14655,797.3993,793.36993
801.8315,790.9524,807.0696,826.0073
803.44324,794.57874,803.44324,828.022
791.75824,794.57874,787.326,770
789.7436,790.14655,779.67035,735.34796
795.38464,793.7729,799.81683,790.9524
805.05493,815.9341,817.9487,833.2601
806.6667,821.1722,810.696,823.5897
794.9817,790.54944,791.75824,764.7619
788.93774,785.31134,786.1172,751.8681
797.3993,805.8608,803.0403,794.9817
806.6667,807.8755,815.12823,829.6337
803.0403,784.5055,809.89014,824.3956
799.011,780.07324,797.3993,775.2381
792.1612,789.7436,787.72894,755.89746
793.7729,793.7729,797.3993,790.9524
799.011,802.6374,808.2784,841.31866
807.8755,816.7399,813.91943,848.97437
798.20514,829.6337,802.23444,792.5641
788.93774,799.81683,781.685,739.7802
805.8608,795.78754,811.9048,821.5751
804.2491,784.10254,794.9817,768.7912
801.02563,790.14655,815.12823,836.4835
794.9817,790.14655,799.41394,800.2198
790.14655,800.2198,783.69965,751.06226
793.7729,803.8461,794.9817,766.3736
796.1905,800.6227,808.2784,811.50183
798.60803,788.1319,807.0696,822.381
794.57874,774.0293,795.38464,788.93774
791.75824,780.87915,780.4762,740.58606
794.9817,800.2198,784.5055,749.45056
809.0842,832.0513,813.5165,837.6923
801.4286,822.381,804.2491,806.26373
807.47253,811.0989,802.23444,817.1429
799.011,784.5055,783.69965,763.95605
787.72894,776.4469,782.49084,759.92676
796.99634,779.2674,796.1905,801.02563
808.68134,789.7436,804.2491,828.022
801.8315,786.9231,794.57874,805.4579
796.5934,780.07324,788.5348,759.5238
792.5641,782.0879,786.52014,748.24176
789.7436,796.5934,798.60803,793.7729
802.23444,832.0513,816.337,840.9158
805.8608,830.4396,814.3223,824.7985
800.6227,794.57874,803.0403,773.6264
803.44324,777.25275,792.5641,749.85345
802.23444,790.9524,799.41394,789.34064
810.293,809.0842,815.9341,832.4542
807.8755,798.20514,811.9048,828.8278
796.1905,784.90845,797.3993,783.2967
801.4286,816.337,797.3993,801.8315
792.5641,825.6044,786.9231,749.45056
798.20514,797.3993,800.6227,781.685
807.0696,793.36993,815.12823,832.8571
799.41394,801.4286,811.50183,842.9304
798.60803,782.8938,799.41394,790.54944
794.57874,794.17584,803.0403,812.3077
807.47253,807.0696,817.1429,837.28937
794.57874,772.01465,786.1172,757.50916
798.20514,808.2784,793.36993,752.27106
809.4872,804.65204,815.9341,851.79486
796.5934,814.7253,795.78754,756.7033
802.23444,785.7143,812.3077,826.8132
810.696,800.2198,809.4872,807.8755
805.4579,787.326,820.3663,848.5714
794.9817,798.60803,799.011,763.5531
795.78754,814.3223,808.68134,822.381
794.9817,798.20514,817.9487,850.989
810.293,787.326,800.2198,757.9121
792.1612,805.4579,808.68134,808.68134
791.75824,811.9048,797.3993,747.03296
791.3553,800.2198,799.011,754.68866
796.99634,805.8608,812.71063,810.696
802.6374,816.337,819.15753,836.08057
796.1905,806.6667,807.0696,815.5311
784.90845,805.8608,787.72894,752.674
782.49084,809.0842,787.326,737.3626
795.38464,797.8022,816.7399,800.2198
794.17584,822.381,835.2747,826.4103
779.2674,820.7692,813.1135,792.5641
771.2088,776.04395,789.34064,736.1539
768.3883,778.0586,787.72894,723.2601
767.98535,797.3993,804.65204,773.22345
772.01465,803.44324,819.9634,812.3077
762.74725,807.0696,812.71063,792.5641
750.65936,801.4286,797.8022,716.8132
753.8828,801.02563,795.78754,697.47253
757.9121,811.9048,809.89014,754.68866
757.50916,824.3956,826.8132,800.6227
763.5531,832.0513,825.6044,793.36993
757.1062,829.2308,805.8608,742.1978
755.4945,834.0659,803.0403,724.87177
757.9121,807.47253,813.5165,751.4652
753.0769,796.99634,819.5604,777.6557
758.71796,786.9231,804.2491,746.63007
750.65936,805.4579,817.1429,782.0879
768.3883,778.86444,800.6227,721.2454
764.7619,789.34064,809.0842,761.13556
769.19415,796.99634,817.1429,799.011
768.3883,804.65204,820.3663,800.6227
761.53845,805.8608,809.89014,778.0586
760.32965,789.7436,794.9817,741.39197
759.12085,812.3077,799.41394,745.0183
762.3443,827.2161,811.9048,790.54944
764.35895,813.5165,813.91943,805.8608
759.92676,790.9524,800.6227,769.59705
760.7326,750.65936,783.2967,735.7509
777.6557,765.16486,791.3553,757.1062
788.1319,796.1905,804.65204,805.8608
777.25275,808.2784,811.0989,822.7839
772.8205,791.75824,804.2491,783.2967
782.8938,781.685,786.1172,743.8095
781.28204,791.75824,794.17584,758.71796
783.69965,795.38464,804.65204,802.6374
794.17584,826.4103,804.2491,833.663
794.57874,822.7839,794.9817,806.26373
782.8938,776.04395,776.8498,754.68866
782.0879,769.19415,782.0879,767.98535
790.14655,794.9817,801.8315,815.9341
788.5348,822.7839,813.1135,840.5128
793.7729,804.2491,803.8461,809.4872
785.7143,772.4176,786.9231,767.5824
786.1172,768.7912,785.7143,779.2674
792.5641,783.2967,809.0842,849.7802
799.81683,799.81683,807.0696,833.2601
790.54944,806.26373,779.67035,747.03296
795.38464,809.89014,794.9817,768.7912
806.6667,787.72894,810.696,834.4689
798.60803,796.5934,794.17584,794.17584
795.78754,785.7143,783.69965,772.4176
806.6667,790.14655,804.2491,823.9927
790.14655,777.25275,782.0879,740.58606
794.17584,773.22345,802.6374,814.3223
794.17584,808.68134,804.2491,786.9231
801.02563,792.96704,790.9524,792.1612
800.2198,815.9341,806.26373,843.73627
794.57874,791.3553,779.67035,739.7802
801.02563,819.5604,790.14655,777.6557
810.293,843.73627,808.68134,826.8132
802.6374,794.9817,799.41394,844.5421
808.68134,815.12823,808.2784,833.2601
797.8022,791.3553,794.17584,797.8022
790.14655,792.5641,786.1172,762.74725
794.9817,791.3553,793.7729,782.49084
795.38464,794.17584,801.4286,823.1868
807.47253,801.02563,806.6667,854.21246
805.4579,792.96704,794.9817,809.0842
792.96704,784.90845,775.64105,749.45056
799.41394,805.4579,784.5055,764.7619
809.89014,814.3223,806.26373,815.9341
807.47253,819.5604,809.0842,845.7509
801.8315,821.1722,797.8022,811.0989
791.3553,786.9231,779.67035,750.2564
789.34064,783.2967,784.90845,757.50916
796.1905,799.011,803.8461,803.44324
799.41394,803.0403,807.47253,822.381
799.41394,799.41394,799.011,787.72894
796.1905,806.26373,792.96704,743.00366
794.17584,806.6667,796.1905,757.9121
799.81683,808.68134,811.50183,808.68134
808.68134,823.1868,828.8278,840.9158
805.4579,820.3663,815.9341,812.71063
797.3993,819.9634,797.3993,759.5238
793.36993,829.6337,798.20514,747.03296
796.5934,815.5311,806.26373,796.1905
801.8315,799.41394,813.1135,845.34796
808.2784,805.8608,811.9048,819.9634
801.8315,808.68134,796.1905,751.4652
793.36993,794.57874,787.72894,735.34796
803.0403,794.57874,808.68134,804.65204
803.8461,794.57874,820.3663,846.55676
802.6374,794.9817,810.293,823.1868
801.4286,795.78754,797.3993,781.685
795.38464,795.78754,794.57874,755.4945
796.1905,817.5458,808.2784,792.5641
798.60803,807.0696,813.91943,834.87177
800.6227,784.5055,814.3223,829.2308
790.54944,785.7143,801.02563,776.04395
792.5641,782.49084,785.31134,741.79486
807.0696,789.7436,803.8461,786.1172
809.4872,803.0403,822.7839,829.6337
805.4579,811.50183,817.5458,834.4689
797.8022,811.50183,804.2491,792.1612
784.90845,784.10254,799.81683,764.7619
798.20514,791.3553,817.1429,817.5458
802.23444,808.68134,823.5897,838.9011
794.57874,807.47253,806.6667,801.02563
797.3993,784.90845,792.96704,770
793.7729,784.10254,788.5348,754.68866
803.44324,792.1612,808.68134,820.3663
811.9048,806.6667,816.7399,855.42126
788.5348,792.5641,793.7729,740.58606
800.6227,790.9524,802.23444,813.1135
790.9524,763.95605,788.93774,749.45056
806.6667,807.47253,817.5458,837.28937
805.8608,821.1722,818.7546,861.8681
796.5934,813.5165,797.8022,810.696
787.326,805.4579,783.2967,763.5531
784.10254,804.65204,785.31134,762.3443
798.60803,786.9231,803.0403,823.9927
813.5165,792.1612,815.12823,858.6447
800.6227,785.7143,797.8022,766.3736
811.9048,785.31134,801.02563,826.4103
805.05493,771.6117,780.87915,773.22345
804.65204,784.5055,780.4762,751.8681
815.9341,803.44324,799.41394,803.0403
811.50183,810.293,807.47253,842.9304
801.8315,802.6374,792.1612,825.2015
801.4286,786.52014,774.43225,761.53845
806.6667,820.3663,789.7436,807.8755
802.6374,788.1319,778.86444,775.64105
811.50183,834.87177,806.6667,843.73627
804.65204,786.9231,782.0879,792.5641
797.8022,777.25275,771.2088,734.1392
805.4579,782.8938,792.1612,780.4762
814.7253,798.20514,803.44324,844.5421
809.89014,809.4872,804.2491,841.31866
812.71063,798.20514,798.60803,838.0952
811.0989,788.5348,794.57874,804.65204
802.6374,781.28204,783.69965,781.685
810.696,795.78754,789.34064,803.0403
813.91943,803.44324,805.8608,854.61536
804.65204,814.3223,806.26373,853.00366
798.60803,821.5751,791.3553,791.75824
801.4286,782.8938,776.4469,757.9121
801.4286,788.1319,790.14655,785.31134
803.0403,803.8461,805.4579,829.2308
804.2491,788.5348,803.44324,842.9304
799.81683,780.4762,786.9231,788.5348
790.54944,777.25275,773.22345,735.34796
789.34064,786.9231,784.90845,768.3883
800.2198,802.23444,800.2198,826.4103
807.0696,803.0403,807.47253,846.1539
801.02563,795.78754,799.81683,799.81683
784.90845,799.41394,782.8938,744.21246
788.1319,813.5165,788.5348,775.64105
801.4286,810.293,805.05493,815.9341
807.0696,788.5348,803.8461,832.4542
801.02563,787.326,796.1905,804.65204
792.96704,787.326,786.1172,748.6447
794.17584,787.326,782.49084,764.7619
796.5934,788.5348,794.17584,815.9341
803.44324,797.8022,798.20514,811.9048
799.81683,789.34064,804.65204,838.0952
796.5934,779.2674,783.69965,754.68866
794.9817,778.86444,787.326,752.674
801.4286,818.3516,804.65204,810.696
808.2784,825.2015,819.9634,848.1685
796.5934,801.4286,805.8608,824.3956
790.54944,798.60803,787.72894,763.1502
795.38464,813.1135,789.7436,750.65936
797.3993,805.05493,801.4286,804.2491
805.4579,795.38464,813.5165,846.9597
807.47253,796.1905,806.6667,838.0952
794.17584,779.2674,786.9231,770.40295
779.67035,770,775.64105,728.49817
786.9231,783.2967,794.57874,775.2381
796.5934,790.9524,813.5165,827.2161
800.2198,809.0842,809.89014,818.7546
795.38464,807.0696,788.1319,766.3736
790.9524,783.69965,780.4762,743.00366
797.8022,795.38464,794.17584,781.685
804.65204,808.68134,805.8608,829.6337
811.0989,819.15753,812.3077,836.08057
799.011,819.5604,800.6227,778.0586
789.34064,790.14655,785.31134,743.00366
800.6227,786.52014,790.9524,774.43225
800.2198,807.47253,809.4872,824.3956
801.02563,809.89014,812.71063,837.28937
803.44324,795.38464,800.2198,785.7143
793.36993,802.6374,789.7436,739.7802
786.9231,793.36993,794.9817,771.2088
799.011,786.1172,809.89014,827.619
806.6667,802.23444,819.15753,838.9011
786.52014,788.5348,805.8608,794.57874
792.5641,782.49084,790.54944,755.09155
802.23444,790.14655,799.81683,775.64105
797.3993,794.9817,814.7253,822.7839
803.0403,807.47253,827.2161,849.7802
799.41394,815.9341,816.337,817.1429
786.52014,795.38464,794.17584,755.89746
782.49084,779.67035,799.81683,761.13556
793.7729,810.293,819.9634,816.7399
803.44324,821.978,824.3956,840.5128
793.36993,798.60803,808.2784,801.8315
785.31134,789.7436,791.75824,747.8388
786.9231,780.87915,793.36993,744.61536
796.5934,800.2198,815.9341,812.3077
809.89014,819.5604,823.5897,863.8828
809.4872,806.26373,812.3077,833.663
808.2784,806.26373,799.81683,764.35895
808.68134,810.293,792.1612,745.82416
811.9048,808.68134,807.0696,798.60803
816.337,828.4249,823.1868,857.4359
817.1429,840.9158,814.7253,844.5421
813.1135,821.1722,801.4286,775.64105
799.011,795.38464,794.17584,755.89746
794.17584,795.78754,803.8461,801.02563
807.0696,814.7253,823.5897,843.73627
809.0842,819.9634,821.1722,838.49817
798.20514,805.8608,799.81683,778.86444
796.99634,789.7436,790.14655,743.8095
807.8755,803.0403,807.0696,790.54944
807.8755,819.9634,823.5897,838.9011
806.26373,819.5604,828.022,852.6007
803.0403,806.26373,808.68134,797.8022
801.02563,809.4872,797.3993,743.4066
802.6374,822.381,807.0696,780.87915
804.65204,813.91943,813.5165,836.08057
810.293,793.7729,813.1135,851.79486
802.6374,785.31134,804.2491,798.60803
792.5641,780.07324,793.36993,740.989
794.57874,783.69965,801.02563,760.7326
797.3993,788.5348,817.1429,812.71063
796.1905,796.1905,796.1905,787.326
784.90845,791.75824,783.69965,741.39197
800.6227,792.5641,813.1135,837.28937
782.49084,792.5641,789.34064,753.47986
792.1612,809.0842,805.4579,803.8461
796.1905,821.5751,818.3516,833.663
789.7436,794.57874,812.71063,812.71063
785.31134,788.93774,791.75824,761.53845
803.44324,804.2491,809.0842,826.4103
806.26373,810.293,822.7839,858.6447
792.96704,801.02563,789.34064,761.13556
810.696,807.0696,812.3077,821.978
799.81683,804.65204,785.31134,768.7912
794.17584,805.05493,783.69965,762.3443
797.8022,807.8755,802.6374,812.3077
803.44324,828.8278,818.3516,847.76556
801.8315,845.34796,809.89014,823.5897
796.5934,822.7839,786.9231,772.8205
794.57874,787.326,780.4762,759.12085
795.38464,786.1172,797.8022,798.60803
799.81683,795.38464,814.7253,844.94507
801.8315,791.75824,809.4872,836.4835
794.17584,801.02563,794.57874,773.22345
790.54944,805.8608,786.9231,758.315
796.5934,783.69965,800.6227,800.2198
800.2198,788.5348,811.50183,838.49817
798.20514,800.2198,810.293,841.31866
789.34064,787.326,798.20514,773.22345
782.8938,799.81683,791.75824,732.1245
786.1172,821.978,805.05493,774.0293
784.5055,810.696,814.7253,822.381
782.49084,804.2491,809.4872,822.7839
784.10254,814.7253,801.02563,777.6557
780.87915,809.89014,789.34064,738.5714
784.5055,800.2198,788.93774,780.07324
799.41394,817.9487,813.1135,828.8278
784.90845,826.0073,799.81683,771.2088
785.7143,799.81683,790.14655,737.3626
789.34064,824.7985,816.337,826.0073
792.1612,776.8498,796.99634,775.2381
799.81683,808.68134,807.8755,839.304
797.8022,858.24176,828.022,854.21246
799.41394,816.337,806.26373,808.2784
788.93774,792.1612,786.9231,757.50916
782.49084,801.4286,795.78754,780.87915
791.75824,817.1429,809.0842,818.7546
793.36993,822.7839,815.12823,830.84247
795.38464,814.3223,805.8608,799.81683
798.20514,801.8315,789.34064,751.06226
794.17584,803.0403,796.99634,757.50916
799.81683,817.5458,815.5311,806.26373
807.8755,831.2454,819.5604,844.1392
810.293,847.76556,809.0842,817.5458
799.81683,841.31866,797.3993,751.8681
792.1612,812.3077,801.8315,743.4066
806.6667,801.8315,814.7253,807.47253
810.696,822.7839,818.7546,842.1245
805.05493,836.4835,806.6667,806.26373
794.9817,807.47253,792.96704,745.82416
793.7729,799.81683,797.8022,751.4652
805.4579,812.3077,813.5165,799.011
815.5311,807.47253,826.0073,837.28937
821.5751,811.9048,817.9487,826.0073
800.6227,800.6227,797.8022,755.89746
799.011,809.0842,797.8022,733.73627
807.0696,812.71063,808.2784,784.5055
801.4286,803.0403,819.5604,830.84247
802.23444,792.96704,817.1429,816.7399
796.5934,767.5824,793.7729,759.12085
782.8938,769.19415,786.1172,744.61536
792.5641,780.07324,798.60803,779.67035
805.4579,784.5055,814.3223,826.0073
802.23444,796.99634,819.15753,828.4249
797.8022,797.3993,798.20514,775.2381
803.0403,794.9817,794.57874,791.3553
800.2198,794.9817,790.9524,784.90845
789.34064,776.8498,780.07324,744.61536
792.5641,795.78754,790.9524,785.31134
808.2784,831.6484,810.696,837.6923
803.0403,811.9048,813.5165,826.8132
803.8461,792.1612,814.3223,836.4835
797.3993,786.52014,781.685,746.63007
806.26373,825.2015,809.0842,832.8571
797.8022,796.5934,800.6227,785.7143
794.57874,799.41394,789.34064,745.82416
796.99634,799.81683,785.31134,774.0293
805.05493,805.05493,801.8315,814.3223
803.8461,797.3993,805.4579,834.4689
804.65204,822.381,796.1905,801.4286
807.8755,806.6667,785.7143,761.13556
799.41394,769.19415,788.93774,765.9707
801.4286,799.81683,811.0989,818.3516
802.6374,812.3077,820.7692,849.3773
799.81683,802.6374,809.89014,813.91943
793.7729,799.81683,798.20514,757.9121
790.54944,804.2491,793.36993,753.47986
798.20514,811.50183,803.44324,808.68134
806.6667,802.23444,813.1135,839.304
805.4579,795.78754,807.8755,813.5165
804.65204,797.3993,791.75824,758.315
802.23444,808.2784,790.9524,761.53845
805.05493,817.5458,809.89014,817.1429
806.6667,805.4579,815.12823,836.4835
806.26373,804.2491,804.2491,819.15753
797.8022,798.60803,790.9524,768.3883
778.86444,791.75824,788.1319,748.6447
777.25275,791.3553,798.60803,780.07324
781.685,792.5641,817.9487,818.3516
784.90845,792.5641,811.9048,809.4872
787.326,792.1612,788.93774,755.89746
780.07324,796.1905,781.28204,731.31866
787.72894,793.36993,797.8022,769.19415
796.1905,813.5165,805.05493,816.7399
800.2198,811.9048,814.3223,813.1135
798.20514,792.5641,774.83514,742.6007
795.78754,796.5934,791.3553,784.90845
800.2198,797.3993,806.26373,829.6337
811.0989,807.8755,802.23444,828.8278
791.75824,790.54944,786.52014,774.0293
800.6227,813.5165,790.14655,791.3553
791.3553,799.41394,777.6557,745.0183
805.8608,792.5641,809.4872,822.7839
804.65204,794.17584,809.0842,834.4689
797.3993,808.68134,798.60803,788.1319
796.99634,786.1172,788.93774,765.9707
800.6227,804.2491,792.1612,778.86444
796.5934,828.8278,788.93774,749.0476
803.44324,784.90845,810.293,826.8132
790.9524,788.5348,788.5348,762.3443
799.81683,790.54944,817.1429,852.6007
798.20514,784.90845,806.26373,811.0989
793.36993,798.60803,788.1319,767.98535
797.3993,803.0403,805.4579,813.91943
795.38464,799.81683,812.3077,849.7802
793.7729,799.011,798.20514,811.0989
782.0879,786.9231,782.49084,749.0476
781.28204,804.65204,791.75824,752.27106
792.96704,826.4103,805.4579,803.8461
799.41394,826.4103,814.3223,838.9011
793.36993,818.7546,806.26373,810.696
787.72894,779.67035,780.87915,745.82416
786.9231,772.4176,777.6557,742.6007
794.17584,794.57874,793.7729,801.8315
798.60803,804.65204,809.0842,838.9011
783.69965,799.81683,786.1172,769.59705
781.28204,777.25275,785.31134,746.2271
790.9524,788.1319,803.8461,775.64105
800.6227,815.9341,814.3223,827.619
797.3993,817.1429,809.89014,829.6337
799.41394,787.326,791.3553,762.74725
801.4286,778.86444,782.49084,734.94507
791.75824,809.4872,805.8608,822.7839
805.8608,800.6227,803.0403,799.011
795.38464,788.5348,807.8755,839.707
799.81683,807.8755,815.9341,849.3773
793.36993,788.5348,793.36993,782.0879
792.1612,799.81683,782.0879,750.2564
789.34064,801.8315,795.78754,790.14655
783.69965,810.696,815.12823,819.9634
798.20514,818.3516,820.3663,841.7216
794.9817,816.7399,802.6374,804.2491
783.2967,808.2784,787.72894,743.00366
786.9231,794.17584,796.99634,782.8938
793.36993,807.8755,809.4872,830.0366
802.6374,813.5165,811.9048,832.4542
793.7729,790.14655,794.9817,789.7436
786.52014,776.04395,780.07324,738.5714
785.7143,791.75824,794.57874,771.2088
792.1612,788.5348,813.91943,846.55676
784.90845,803.8461,811.9048,819.9634
792.1612,794.9817,782.8938,754.68866
790.54944,815.5311,790.14655,766.77655
788.1319,788.93774,801.4286,805.05493
783.69965,819.9634,802.23444,795.78754
785.31134,796.5934,803.44324,811.50183
785.31134,786.9231,801.8315,792.1612
777.6557,780.07324,785.31134,745.42126
785.31134,788.5348,787.326,735.34796
796.5934,794.9817,802.23444,803.8461
799.011,804.2491,801.4286,836.08057
792.5641,799.011,795.78754,801.8315
789.7436,788.1319,786.52014,753.8828
787.326,801.8315,790.54944,751.06226
793.36993,807.8755,807.47253,806.6667
805.8608,826.0073,819.15753,838.0952
808.2784,819.5604,815.12823,818.3516
805.05493,787.72894,796.99634,760.7326
795.78754,781.685,786.9231,742.6007
802.6374,799.011,806.26373,795.38464
815.5311,812.71063,818.7546,835.2747
805.8608,799.81683,804.65204,821.5751
801.02563,792.96704,789.7436,768.7912
803.0403,795.78754,789.7436,765.56775
797.8022,794.9817,803.8461,794.17584
796.99634,796.99634,813.1135,831.2454
802.6374,798.20514,810.696,832.8571
799.41394,809.4872,794.57874,770
785.31134,817.5458,786.52014,731.7216
792.5641,799.41394,796.99634,777.6557
799.011,785.7143,808.68134,837.6923
792.1612,790.14655,815.12823,828.8278
788.5348,790.54944,801.4286,776.4469
788.5348,794.17584,787.72894,743.8095
790.14655,798.20514,799.81683,773.6264
795.38464,805.8608,815.12823,827.619
800.2198,808.68134,819.9634,836.08057
788.5348,799.011,802.6374,777.25275
780.87915,790.9524,788.1319,728.49817
791.3553,806.26373,808.2784,763.1502
799.81683,812.3077,821.5751,818.7546
794.9817,790.9524,817.5458,833.663
792.5641,793.7729,805.4579,792.96704
788.93774,792.5641,791.3553,754.2857
787.326,793.7729,797.3993,777.25275
798.60803,801.02563,812.71063,813.1135
803.8461,804.2491,818.7546,842.52747
789.34064,801.02563,796.5934,740.58606
790.14655,802.23444,797.8022,759.12085
796.5934,803.44324,813.5165,823.1868
790.9524,807.8755,811.0989,834.0659
787.72894,815.12823,794.9817,797.3993
788.1319,796.99634,810.293,796.1905
792.96704,793.36993,787.326,754.2857
791.75824,800.2198,805.8608,805.4579
786.52014,796.5934,780.4762,746.63007
804.2491,808.68134,806.6667,826.4103
795.38464,802.6374,817.9487,841.7216
796.99634,799.81683,790.14655,765.9707
795.38464,801.4286,788.5348,751.8681
808.68134,803.44324,804.2491,819.5604
816.337,804.65204,816.7399,844.94507
813.5165,804.2491,809.89014,821.978
807.0696,816.337,795.78754,777.6557
802.6374,820.7692,791.75824,745.82416
804.65204,793.7729,807.0696,795.78754
801.02563,789.34064,814.3223,833.663
803.44324,798.60803,805.8608,820.3663
805.4579,809.0842,790.9524,779.67035
792.5641,804.2491,780.87915,745.42126
788.5348,790.54944,793.36993,787.326
800.2198,805.4579,810.293,832.0513
797.8022,811.9048,806.26373,822.381
795.78754,792.96704,791.75824,782.8938
799.41394,774.43225,785.31134,738.1685
798.60803,795.78754,793.36993,757.9121
803.44324,816.7399,807.0696,829.6337
811.0989,804.2491,815.9341,844.5421
804.65204,793.36993,800.6227,778.0586
795.38464,785.31134,780.07324,736.1539
802.6374,810.293,810.696,829.2308
799.81683,795.78754,792.1612,780.07324
801.8315,815.5311,814.3223,833.2601
799.41394,822.7839,803.44324,789.7436
799.011,811.0989,795.38464,779.67035
803.0403,819.15753,811.50183,836.08057
811.9048,835.6777,817.9487,842.52747
807.8755,813.1135,809.89014,802.6374
793.36993,769.19415,786.1172,746.2271
790.54944,764.7619,787.326,750.65936
796.99634,788.1319,811.9048,812.71063
800.2198,818.3516,788.5348,740.989
799.011,801.4286,814.7253,850.58606
801.02563,801.02563,805.8608,817.5458
794.57874,805.05493,790.9524,761.53845
800.6227,806.26373,794.57874,764.35895
805.8608,808.68134,812.3077,828.022
803.0403,811.0989,819.15753,857.8388
808.2784,811.0989,816.337,829.6337
806.26373,821.5751,803.8461,785.31134
798.20514,819.5604,794.9817,780.07324
806.6667,803.8461,807.47253,811.0989
820.3663,802.6374,819.9634,842.52747
809.89014,804.65204,812.3077,825.6044
805.4579,801.8315,798.60803,774.43225
805.8608,799.011,790.14655,754.2857
800.2198,805.4579,799.41394,792.96704
811.0989,803.8461,818.3516,841.7216
812.3077,791.3553,814.7253,832.8571
796.5934,792.96704,794.57874,767.98535
787.326,795.38464,788.5348,737.76556
792.96704,821.978,800.2198,782.49084
800.2198,831.2454,815.12823,834.87177
793.7729,787.72894,808.2784,832.0513
780.07324,778.0586,792.96704,761.53845
789.7436,799.41394,788.93774,736.1539
797.8022,799.41394,799.41394,778.46155
794.9817,798.20514,817.9487,825.2015
801.4286,806.6667,825.6044,831.6484
801.4286,816.7399,811.0989,774.0293
786.9231,811.0989,792.1612,736.1539
784.10254,805.05493,796.5934,765.16486
796.1905,813.91943,813.5165,818.7546
801.4286,833.2601,818.3516,834.0659
795.78754,831.6484,805.4579,791.3553
782.49084,796.5934,789.7436,754.2857
781.685,782.49084,789.34064,767.5824
793.7729,794.57874,812.3077,818.3516
790.14655,801.02563,815.5311,831.6484
788.93774,796.5934,793.7729,791.3553
784.5055,788.93774,787.72894,751.06226
774.83514,770.40295,789.7436,761.53845
787.72894,781.685,805.4579,815.12823
798.20514,796.99634,817.9487,838.49817
794.9817,782.8938,802.23444,807.0696
781.685,792.1612,783.69965,735.34796
783.2967,794.9817,786.52014,730.10986
801.8315,794.57874,808.2784,796.99634
807.0696,815.5311,817.9487,840.10986
801.02563,809.0842,805.4579,817.9487
794.17584,804.2491,792.5641,754.68866
795.78754,811.9048,797.3993,749.0476
796.5934,805.05493,805.4579,795.78754
796.5934,815.12823,805.4579,831.2454
797.3993,829.6337,801.02563,814.3223
786.9231,805.8608,783.69965,757.1062
786.1172,785.7143,782.0879,744.21246
801.8315,815.9341,812.3077,796.5934
803.44324,830.84247,828.8278,847.3626
800.2198,800.2198,812.3077,832.8571
798.60803,782.49084,790.14655,770.80585
795.38464,782.0879,786.52014,751.4652
790.9524,786.1172,800.2198,791.75824
794.9817,788.1319,810.293,826.0073
794.57874,788.1319,808.68134,831.2454
788.93774,783.2967,792.96704,771.6117
794.17584,786.52014,780.87915,736.9597
795.38464,785.31134,798.20514,786.9231
799.011,803.8461,819.15753,826.4103
802.6374,830.4396,810.293,819.9634
800.2198,809.89014,792.1612,781.28204
792.96704,772.01465,776.8498,742.1978
795.78754,774.83514,784.5055,764.35895
806.6667,793.36993,806.26373,828.8278
798.60803,805.8608,809.0842,836.8865
796.1905,804.2491,799.011,794.17584
795.78754,792.5641,787.72894,745.82416
797.3993,786.9231,798.20514,770.40295
803.0403,797.8022,815.12823,830.84247
801.02563,813.5165,811.50183,846.55676
797.8022,805.05493,797.3993,798.20514
794.9817,805.8608,784.10254,742.1978
799.41394,812.3077,788.1319,760.7326
804.65204,796.1905,804.65204,830.4396
803.0403,798.20514,813.91943,845.7509
797.8022,811.50183,802.6374,797.3993
800.2198,792.96704,791.3553,753.0769
791.3553,782.49084,797.3993,753.8828
781.28204,798.60803,815.12823,806.26373
796.5934,812.71063,826.4103,834.0659
790.54944,800.6227,809.89014,791.75824
779.2674,794.17584,790.9524,743.8095
783.2967,795.38464,790.14655,749.0476
777.6557,807.0696,805.4579,797.8022
784.10254,817.9487,818.7546,832.4542
792.5641,801.8315,813.1135,823.9927
789.34064,791.75824,799.41394,766.3736
784.90845,803.0403,794.57874,746.2271
790.14655,811.9048,807.47253,807.47253
793.7729,800.6227,819.9634,848.5714
796.99634,801.8315,825.2015,835.6777
796.5934,797.8022,811.0989,777.6557
786.52014,790.14655,792.5641,747.03296
787.72894,799.011,806.26373,784.5055
790.54944,804.2491,823.1868,840.10986
793.36993,828.8278,817.5458,829.6337
793.7729,825.6044,794.17584,757.1062
795.78754,792.5641,787.326,735.7509
795.78754,796.99634,802.6374,783.2967
795.78754,809.0842,817.1429,830.4396
797.8022,808.68134,821.5751,838.9011
794.57874,797.8022,803.0403,784.90845
792.96704,803.8461,782.8938,737.76556
799.011,810.696,796.1905,778.0586
799.011,811.0989,812.71063,846.55676
800.6227,799.81683,814.7253,843.3333
796.1905,785.7143,800.2198,774.43225
787.326,801.8315,785.7143,739.7802
796.1905,813.1135,792.5641,770.40295
804.65204,800.6227,807.47253,805.4579
808.2784,803.8461,807.0696,828.4249
803.44324,796.99634,793.36993,793.36993
799.011,784.10254,784.5055,744.21246
799.41394,780.07324,788.1319,763.95605
792.1612,789.34064,805.4579,813.1135
796.5934,804.2491,819.9634,840.5128
799.41394,810.696,807.47253,804.2491
788.1319,808.2784,784.90845,743.8095
791.75824,791.75824,788.5348,751.06226
795.78754,810.696,807.47253,802.23444
793.7729,828.022,821.5751,834.87177
790.14655,799.41394,807.8755,814.7253
786.1172,782.0879,784.10254,745.0183
790.54944,780.87915,788.93774,748.6447
795.38464,792.96704,806.6667,813.91943
801.02563,805.8608,815.5311,832.0513
804.65204,811.9048,807.8755,825.2015
807.8755,815.9341,790.14655,788.5348
800.2198,806.26373,797.8022,756.7033
772.8205,807.8755,813.1135,784.90845
792.5641,816.337,818.7546,835.6777
815.9341,827.2161,822.7839,840.5128
800.2198,833.2601,810.696,781.28204
794.9817,803.44324,799.011,754.68866
805.4579,780.87915,816.337,803.0403
810.293,779.67035,830.84247,857.03296
801.8315,782.49084,817.5458,850.18317
788.93774,782.0879,802.23444,790.14655
787.326,784.90845,799.81683,760.32965
795.78754,794.9817,811.0989,795.78754
805.8608,796.5934,824.7985,838.0952
804.65204,798.20514,825.2015,834.87177
794.17584,777.6557,809.0842,797.3993
795.78754,788.1319,798.60803,756.30035
798.60803,803.8461,804.65204,769.19415
805.8608,797.3993,818.3516,827.2161
807.8755,794.9817,822.7839,847.76556
799.011,788.1319,808.2784,798.60803
794.17584,785.7143,791.3553,743.4066
807.0696,782.49084,801.8315,781.28204
814.7253,797.3993,821.978,840.5128
798.20514,801.4286,818.3516,832.0513
796.99634,784.5055,809.89014,794.57874
791.75824,784.5055,797.8022,745.42126
783.69965,792.5641,793.7729,751.4652
796.1905,815.9341,811.0989,810.293
790.54944,793.7729,804.2491,794.9817
787.326,779.67035,789.7436,748.6447
787.72894,781.28204,786.1172,759.92676
799.011,823.5897,813.91943,835.6777
801.02563,794.57874,801.8315,812.3077
810.293,799.011,809.89014,848.97437
801.8315,794.9817,801.4286,821.5751
794.57874,779.2674,786.9231,754.68866
792.5641,771.2088,784.90845,762.74725
809.0842,790.9524,808.68134,829.6337
816.7399,803.0403,821.978,856.2271
809.0842,819.15753,805.8608,822.381
808.2784,805.8608,790.14655,770.40295
802.23444,773.6264,788.93774,759.5238
796.99634,776.04395,803.0403,794.9817
799.011,772.8205,812.3077,834.0659
806.6667,776.8498,813.1135,820.7692
805.05493,788.1319,798.60803,767.5824
798.60803,807.47253,788.93774,757.9121
804.2491,821.1722,804.65204,806.6667
812.3077,809.89014,817.5458,831.6484
811.50183,810.696,817.9487,825.2015
799.81683,801.8315,806.6667,777.6557
793.7729,815.9341,790.14655,755.09155
798.20514,823.1868,801.02563,802.23444
796.1905,784.10254,815.12823,827.2161
783.69965,782.49084,799.41394,783.69965
797.8022,788.1319,817.1429,832.0513
794.9817,802.6374,799.41394,777.25275
781.28204,781.28204,789.7436,741.79486
796.1905,815.12823,811.9048,834.87177
799.011,809.89014,810.293,838.49817
806.26373,811.9048,801.8315,793.7729
799.011,817.1429,794.57874,760.7326
798.20514,803.0403,794.17584,780.87915
807.47253,817.9487,808.68134,828.8278
803.8461,830.0366,817.1429,846.1539
797.3993,785.31134,801.4286,815.9341
790.54944,768.7912,787.326,753.8828
790.14655,788.5348,790.9524,759.12085
801.02563,802.23444,806.6667,816.337
804.2491,795.78754,813.5165,837.28937
788.93774,776.8498,798.20514,806.26373
792.5641,770,784.10254,753.8828
799.81683,777.25275,788.5348,762.3443
792.96704,791.3553,796.99634,813.91943
794.57874,804.2491,807.0696,833.663
802.23444,818.3516,801.4286,799.81683
801.8315,815.9341,787.326,767.5824
797.3993,792.96704,786.1172,766.3736
806.6667,787.72894,801.4286,799.81683
805.4579,798.60803,812.71063,813.5165
800.6227,799.011,785.31134,753.0769
801.4286,798.20514,802.6374,790.9524
787.326,808.2784,785.31134,731.7216
792.1612,803.8461,799.81683,770.40295
805.4579,803.8461,814.3223,830.4396
817.1429,811.50183,818.3516,838.49817
828.4249,803.8461,801.4286,783.2967
819.5604,821.1722,796.1905,757.50916
799.41394,826.4103,812.3077,794.57874
792.96704,815.9341,822.381,828.022
795.78754,820.3663,816.7399,828.4249
800.6227,795.38464,800.6227,778.0586
785.7143,778.86444,798.60803,732.52747
778.0586,798.20514,806.6667,772.4176
802.23444,813.5165,819.9634,832.8571
801.02563,807.47253,826.8132,830.4396
782.8938,801.8315,811.50183,762.3443
768.3883,803.44324,799.81683,719.6337
772.8205,803.44324,808.68134,769.19415
786.9231,812.71063,832.0513,826.0073
782.0879,804.2491,834.0659,834.0659
772.01465,775.64105,812.3077,778.46155
778.46155,768.3883,805.4579,740.989
792.1612,770.80585,820.3663,789.34064
796.1905,792.5641,834.87177,826.0073
796.5934,807.8755,834.4689,840.9158
795.78754,792.96704,821.978,809.4872
792.96704,791.3553,808.2784,751.8681
792.5641,792.1612,813.91943,764.7619
801.02563,794.57874,830.4396,816.7399
797.8022,797.8022,828.022,826.4103
790.54944,819.15753,813.1135,805.8608
788.1319,822.381,795.78754,759.92676
784.10254,784.5055,797.3993,752.674
784.5055,768.7912,811.0989,807.0696
794.57874,784.10254,815.12823,832.0513
799.41394,790.54944,807.8755,804.65204
794.57874,783.2967,793.7729,748.24176
782.8938,785.31134,797.3993,731.7216
782.8938,805.4579,815.5311,794.57874
790.14655,809.0842,818.7546,841.7216
784.10254,788.93774,806.26373,806.6667
774.83514,782.8938,793.36993,745.42126
781.685,793.7729,793.7729,739.7802
787.326,797.3993,807.8755,802.6374
788.93774,789.34064,821.1722,829.2308
787.326,788.1319,807.8755,797.8022
784.90845,789.7436,792.5641,751.4652
783.2967,789.7436,792.1612,750.2564
779.67035,792.96704,794.17584,792.1612
787.72894,790.54944,803.8461,821.5751
796.5934,791.75824,806.26373,817.9487
792.96704,791.3553,788.1319,765.9707
789.34064,791.3553,786.52014,740.18317
793.36993,795.78754,802.6374,777.25275
794.57874,807.0696,815.9341,827.2161
793.7729,817.9487,817.5458,823.5897
786.52014,793.36993,793.36993,767.5824
788.5348,787.326,777.25275,742.1978
792.5641,790.9524,796.99634,779.2674
790.54944,786.52014,808.68134,823.1868
798.20514,794.17584,805.8608,832.0513
795.38464,795.78754,794.9817,790.14655
780.07324,779.67035,776.4469,731.31866
784.10254,783.69965,786.9231,749.85345
795.38464,799.011,808.68134,815.9341
794.9817,799.41394,813.91943,839.707
795.38464,806.6667,800.6227,792.1612
794.17584,821.978,784.5055,742.6007
801.8315,814.7253,796.99634,768.7912
805.8608,807.47253,810.696,823.5897
800.2198,804.65204,802.6374,836.4835
801.4286,780.4762,792.5641,794.17584
795.38464,776.8498,784.90845,755.4945
790.54944,789.34064,789.7436,773.6264
799.41394,803.44324,809.4872,828.022
797.3993,795.78754,804.65204,809.0842
792.5641,804.2491,796.5934,799.011
793.7729,782.8938,784.10254,751.06226
793.7729,791.3553,787.72894,753.47986
805.05493,824.7985,809.0842,809.4872
797.3993,805.4579,807.8755,811.9048
810.293,818.7546,818.7546,840.5128
785.31134,779.67035,792.1612,757.50916
782.0879,766.3736,786.1172,749.45056
788.93774,784.90845,794.57874,797.3993
799.41394,799.011,801.4286,835.2747
798.60803,800.2198,796.99634,815.12823
797.3993,799.41394,790.14655,756.7033
800.6227,798.60803,783.2967,761.53845
799.81683,803.0403,792.1612,807.0696
806.6667,817.1429,811.50183,845.7509
801.4286,811.0989,807.8755,840.10986
793.7729,788.5348,788.93774,765.56775
795.78754,781.685,785.31134,742.6007
794.9817,792.5641,799.81683,792.96704
803.0403,816.337,819.5604,834.87177
805.05493,823.1868,813.91943,836.8865
794.9817,799.011,788.93774,790.9524
800.6227,802.6374,797.3993,787.326
794.9817,791.3553,782.0879,753.8828
807.8755,806.6667,813.1135,840.10986
811.50183,813.1135,809.89014,843.73627
802.6374,821.978,792.5641,786.1172
794.9817,795.38464,782.0879,740.18317
794.9817,778.46155,790.54944,770.40295
801.8315,793.7729,804.65204,821.978
802.6374,811.9048,812.3077,837.6923
794.17584,812.3077,793.7729,798.60803
790.9524,796.99634,777.25275,745.82416
797.3993,799.81683,786.1172,755.89746
807.8755,806.6667,802.23444,809.0842
811.0989,816.7399,812.71063,833.663
804.2491,805.4579,800.2198,790.54944
799.41394,787.326,784.10254,749.45056
799.011,801.4286,790.54944,776.8498
798.60803,805.8608,807.0696,828.022
792.96704,794.17584,816.7399,830.4396
792.5641,788.5348,807.47253,799.41394
790.14655,774.0293,793.36993,751.06226
794.57874,776.8498,802.6374,753.0769
800.6227,795.78754,813.1135,810.696
795.38464,799.81683,812.3077,843.73627
794.9817,786.52014,805.8608,807.47253
793.7729,786.52014,790.14655,748.24176
791.3553,788.93774,786.1172,742.6007
795.78754,806.26373,804.2491,795.38464
800.6227,840.10986,821.1722,839.707
799.81683,834.87177,817.9487,817.5458
793.36993,797.3993,793.36993,761.13556
782.49084,781.28204,783.2967,751.06226
791.75824,794.17584,803.8461,807.8755
811.50183,809.89014,819.9634,853.4066
812.3077,806.26373,811.50183,842.9304
804.65204,798.60803,787.326,776.04395
798.60803,800.2198,780.87915,738.97437
803.8461,812.3077,799.81683,797.8022
812.3077,826.0073,815.5311,852.6007
814.3223,822.7839,811.0989,845.34796
805.05493,817.9487,794.57874,782.8938
806.26373,808.2784,793.7729,795.78754
811.0989,803.0403,801.02563,846.1539
805.4579,806.26373,799.41394,793.7729
807.0696,792.96704,805.05493,849.3773
794.57874,782.8938,791.3553,765.16486
798.20514,821.978,780.87915,752.27106
799.41394,791.75824,797.8022,794.9817
803.0403,805.05493,812.3077,843.3333
798.20514,790.54944,811.9048,840.9158
794.17584,791.3553,805.05493,783.2967
794.17584,786.9231,787.72894,743.4066
792.96704,809.4872,790.9524,771.2088
787.72894,828.022,807.47253,814.3223
784.90845,794.9817,809.89014,828.8278
789.7436,781.28204,797.8022,798.20514
790.14655,789.7436,780.4762,733.73627
785.7143,790.54944,786.52014,772.8205
802.6374,786.9231,806.6667,836.8865
805.4579,787.326,811.50183,823.1868
790.14655,780.87915,798.60803,792.1612
777.6557,782.8938,789.34064,753.47986
784.90845,795.78754,797.3993,798.20514
796.1905,811.0989,809.0842,834.0659
803.8461,805.8608,804.2491,814.3223
796.1905,771.6117,792.5641,763.1502
792.96704,774.0293,798.60803,747.4359
793.36993,794.17584,815.5311,795.38464
792.5641,804.65204,821.5751,831.2454
796.5934,812.71063,813.5165,804.65204
784.10254,773.6264,790.14655,754.68866
787.326,803.8461,797.3993,749.45056
794.9817,787.326,804.65204,813.5165
803.44324,788.5348,809.89014,846.1539
782.0879,786.1172,797.3993,800.2198
781.685,792.5641,789.34064,744.61536
763.95605,792.1612,786.9231,747.03296
775.64105,797.8022,784.90845,732.1245
774.83514,794.17584,796.99634,760.32965
764.7619,807.0696,806.26373,793.7729
757.50916,813.5165,801.8315,779.67035
757.50916,804.2491,786.52014,738.97437
763.1502,803.44324,780.07324,712.7839
756.7033,815.12823,794.9817,739.7802
751.4652,817.9487,806.26373,796.5934
765.16486,840.5128,810.293,802.6374
762.74725,862.27106,802.6374,748.6447
744.21246,839.707,790.9524,702.3077
751.06226,852.6007,799.81683,729.304
761.13556,856.63007,809.89014,779.2674
760.7326,822.381,809.0842,795.38464
738.1685,821.1722,794.57874,740.58606
722.8571,822.381,784.10254,680.14655
733.3333,814.7253,797.3993,703.5165
731.7216,811.9048,809.0842,760.32965
726.08057,814.3223,801.8315,760.7326
731.7216,820.3663,789.7436,720.0366
730.9158,827.619,776.8498,681.75824
736.1539,814.3223,782.0879,707.1429
742.1978,827.2161,806.6667,761.13556
726.8865,866.7033,813.1135,763.95605
721.2454,842.52747,791.75824,730.5128
728.0952,794.9817,775.64105,698.2784
727.6923,801.4286,787.326,702.3077
722.8571,819.5604,803.8461,738.5714
728.0952,823.1868,811.9048,774.83514
743.00366,819.5604,806.6667,764.35895
735.34796,814.3223,796.1905,706.7399
726.4835,826.4103,810.696,735.34796
743.4066,836.4835,814.3223,771.2088
760.7326,830.84247,811.9048,766.3736
723.663,818.3516,800.2198,687.8022
729.304,825.2015,796.99634,687.8022
743.00366,829.2308,801.8315,715.2015
733.73627,814.7253,813.1135,737.3626
743.8095,811.0989,795.38464,725.2747
739.3773,801.4286,786.9231,707.1429
747.8388,815.12823,830.0366,792.1612
753.47986,818.3516,817.5458,780.07324
736.1539,810.696,796.99634,737.76556
728.49817,820.7692,809.0842,769.59705
738.5714,816.337,803.8461,758.71796
745.42126,805.05493,784.90845,713.5897
745.82416,811.9048,778.46155,691.4286
747.4359,844.1392,801.8315,733.3333
745.42126,852.1978,809.89014,784.10254
751.4652,817.5458,795.78754,779.2674
756.30035,803.0403,785.31134,741.39197
753.8828,819.15753,783.69965,713.9927
755.09155,830.4396,799.011,743.4066
764.7619,810.293,814.3223,795.78754
772.4176,807.0696,816.337,795.78754
767.1795,820.7692,799.011,754.2857
767.5824,801.8315,785.7143,724.0659
777.25275,789.34064,791.3553,757.50916
785.31134,803.44324,802.6374,811.9048
783.2967,818.3516,812.71063,817.5458
778.46155,812.71063,805.05493,780.07324
776.8498,783.2967,784.5055,737.3626
777.6557,777.25275,782.49084,751.4652
798.20514,792.1612,802.23444,811.9048
803.8461,795.78754,810.293,838.49817
792.1612,790.9524,803.8461,804.2491
790.14655,796.1905,795.38464,767.1795
792.96704,787.72894,795.78754,765.56775
790.14655,786.52014,803.44324,805.4579
799.011,797.3993,814.7253,832.4542
804.65204,779.67035,801.4286,808.68134
819.9634,776.4469,788.5348,766.77655
803.0403,790.14655,786.52014,764.35895
805.05493,797.3993,791.75824,761.9414
813.91943,774.0293,801.4286,817.9487
821.5751,779.67035,811.0989,851.79486
829.6337,786.9231,807.0696,837.6923
830.84247,779.2674,790.54944,785.31134
826.8132,780.87915,797.8022,826.0073
835.6777,773.6264,800.2198,859.0476
846.9597,783.69965,800.2198,848.97437
836.4835,788.5348,784.5055,805.4579
826.4103,772.01465,776.04395,785.31134
842.52747,803.8461,794.9817,845.7509
845.7509,812.71063,806.6667,881.6117
838.0952,782.8938,795.78754,859.45056
834.4689,767.5824,781.28204,811.9048
843.73627,763.95605,784.90845,791.75824
844.5421,778.86444,808.2784,875.9707
848.5714,776.04395,800.6227,840.5128
841.7216,780.4762,807.47253,862.27106
838.49817,770,793.36993,819.5604
839.304,765.9707,788.93774,798.20514
846.9597,787.326,804.2491,830.0366
838.9011,788.93774,813.91943,869.5238
835.6777,797.8022,818.3516,872.3443
836.08057,817.1429,802.6374,823.5897
823.5897,794.57874,783.69965,772.8205
819.5604,782.0879,796.1905,795.78754
828.4249,793.7729,816.7399,843.73627
832.0513,785.31134,818.7546,852.6007
