eeg_1,eeg_2,eeg_3,eeg_4
756.30035,796.99634,790.9524,768.7912
753.47986,791.3553,785.7143,745.82416
773.6264,803.44324,799.41394,807.0696
768.7912,805.8608,799.41394,816.7399
768.7912,811.9048,795.38464,799.011
778.46155,819.5604,799.011,773.22345
759.92676,794.17584,791.75824,759.12085
786.52014,815.12823,804.65204,771.2088
785.7143,809.0842,801.02563,809.4872
778.0586,803.0403,797.3993,821.978
781.685,798.60803,799.81683,807.47253
782.49084,796.99634,797.3993,779.2674
776.4469,796.99634,796.5934,771.6117
797.3993,808.68134,805.05493,823.5897
799.011,811.9048,805.05493,817.9487
786.1172,803.44324,803.8461,811.0989
790.9524,809.4872,805.8608,794.17584
780.4762,807.8755,805.4579,774.83514
788.1319,814.3223,806.26373,807.8755
786.1172,810.696,799.81683,819.9634
781.685,806.6667,796.1905,805.05493
784.10254,808.2784,797.8022,785.31134
776.4469,803.0403,798.20514,764.35895
773.6264,803.0403,797.3993,780.4762
774.43225,800.6227,793.36993,797.3993
780.07324,801.8315,794.17584,794.17584
790.9524,811.0989,794.9817,745.0183
789.7436,811.0989,798.20514,777.25275
788.1319,812.3077,799.011,813.91943
787.326,805.8608,792.1612,802.23444
782.49084,807.47253,791.75824,787.326
776.8498,806.6667,787.72894,757.9121
786.9231,807.47253,795.78754,771.2088
772.8205,803.0403,788.1319,773.22345
780.4762,804.65204,796.99634,817.5458
781.28204,809.0842,794.17584,811.0989
780.87915,810.696,793.36993,790.54944
782.49084,807.0696,794.9817,763.5531
776.4469,794.9817,789.7436,765.9707
776.8498,795.78754,792.1612,806.6667
775.64105,802.6374,792.1612,809.4872
774.83514,801.02563,792.96704,795.78754
776.4469,798.20514,793.7729,768.7912
780.4762,802.6374,793.7729,777.25275
788.5348,807.47253,794.9817,820.7692
790.14655,804.65204,794.57874,819.9634
778.86444,797.3993,790.9524,797.8022
767.98535,796.1905,784.90845,767.5824
767.1795,801.8315,787.72894,767.5824
772.01465,802.6374,795.78754,807.47253
772.4176,798.20514,794.57874,812.71063
760.7326,800.2198,789.34064,786.52014
759.5238,805.4579,787.72894,763.1502
767.1795,805.05493,784.5055,765.16486
768.3883,802.23444,785.31134,792.96704
771.6117,805.4579,792.96704,803.44324
778.46155,807.8755,799.41394,796.1905
789.7436,805.05493,809.0842,797.3993
793.36993,800.6227,804.65204,786.9231
792.5641,799.41394,795.38464,803.44324
786.52014,799.011,796.99634,817.5458
789.7436,801.02563,796.1905,789.34064
788.1319,801.02563,796.5934,807.0696
785.7143,790.9524,794.9817,796.5934
786.1172,792.1612,796.99634,774.43225
791.75824,798.60803,792.5641,815.12823
789.34064,800.2198,787.72894,805.4579
782.8938,805.05493,785.7143,786.52014
791.3553,806.6667,792.5641,767.98535
786.1172,798.20514,791.3553,799.41394
792.5641,800.6227,794.57874,792.1612
786.1172,797.3993,791.3553,779.2674
791.75824,796.99634,793.7729,770.40295
788.5348,801.8315,792.1612,745.82416
776.8498,801.02563,792.96704,767.1795
771.6117,798.20514,796.99634,796.5934
767.5824,800.2198,797.8022,791.3553
770.80585,803.0403,801.02563,780.4762
776.04395,802.23444,801.8315,761.53845
789.34064,808.68134,805.4579,775.64105
801.4286,815.5311,809.0842,811.50183
799.011,807.8755,803.8461,804.2491
795.78754,803.0403,798.60803,788.93774
791.3553,799.41394,793.36993,761.13556
786.52014,794.17584,792.1612,752.674
786.52014,794.9817,791.3553,792.5641
796.5934,801.4286,785.7143,801.02563
803.0403,808.68134,788.1319,786.1172
798.20514,808.2784,791.3553,770.0
803.0403,803.0403,788.5348,775.2381
807.47253,805.8608,791.75824,807.0696
813.5165,812.71063,803.0403,822.7839
807.0696,803.44324,803.0403,813.5165
793.7729,794.9817,796.99634,790.54944
796.99634,804.65204,798.20514,782.0879
796.5934,815.5311,799.81683,809.89014
794.57874,811.0989,794.17584,818.3516
794.57874,810.293,788.93774,804.2491
794.9817,805.4579,799.41394,793.36993
787.326,803.8461,799.81683,778.86444
781.28204,808.68134,794.57874,796.5934
780.4762,810.293,790.9524,809.0842
790.9524,821.5751,801.8315,811.0989
798.20514,823.9927,814.3223,800.6227
780.07324,797.3993,795.78754,763.1502
777.6557,794.9817,791.75824,782.0879
802.6374,809.89014,804.2491,811.9048
803.8461,810.696,799.011,800.6227
799.011,804.65204,790.54944,774.43225
798.20514,806.6667,793.7729,760.32965
789.7436,807.8755,799.41394,783.2967
782.0879,805.8608,794.9817,799.011
781.685,805.4579,790.54944,798.20514
779.67035,806.26373,793.7729,790.54944
782.49084,806.26373,801.8315,776.04395
786.9231,803.0403,803.44324,788.1319
786.9231,797.3993,799.81683,816.337
778.46155,798.20514,800.2198,823.1868
774.0293,801.8315,799.41394,807.47253
775.2381,801.4286,796.5934,776.4469
772.8205,801.4286,793.7729,779.67035
768.3883,801.4286,792.96704,809.4872
760.7326,796.99634,797.8022,810.293
752.27106,797.3993,799.011,797.3993
752.674,799.41394,791.75824,761.13556
767.1795,803.8461,789.7436,758.71796
774.83514,811.50183,799.011,801.02563
762.3443,807.8755,798.20514,804.2491
766.3736,806.6667,796.1905,794.57874
785.7143,818.7546,811.0989,795.38464
792.5641,823.9927,816.337,798.60803
784.5055,815.9341,802.23444,810.696
784.10254,819.9634,798.60803,812.3077
778.46155,802.23444,794.9817,780.07324
776.4469,797.8022,794.17584,768.3883
785.31134,805.05493,797.3993,802.6374
784.5055,817.5458,797.8022,798.60803
791.75824,812.71063,800.6227,835.6777
786.9231,808.68134,801.02563,823.5897
780.87915,799.41394,796.1905,798.60803
779.67035,794.57874,792.5641,785.7143
784.5055,801.02563,804.2491,816.7399
784.5055,807.0696,808.68134,830.0366
778.0586,806.26373,801.4286,808.2784
777.25275,802.6374,797.3993,784.90845
762.74725,796.1905,792.96704,770.40295
746.2271,796.99634,794.57874,795.38464
755.09155,801.02563,798.20514,818.7546
762.74725,808.68134,800.2198,800.6227
761.9414,808.2784,799.81683,773.6264
745.0183,799.81683,798.20514,819.5604
766.3736,804.2491,800.2198,786.1172
774.43225,811.0989,806.6667,811.0989
783.2967,811.0989,810.293,800.6227
784.10254,800.2198,804.65204,776.4469
784.5055,799.011,799.81683,751.06226
786.52014,803.44324,798.60803,761.53845
782.49084,806.6667,796.5934,785.31134
785.7143,810.696,798.20514,783.2967
780.4762,814.3223,803.0403,776.4469
778.46155,810.293,800.2198,762.3443
791.75824,810.293,794.17584,775.64105
788.1319,806.26373,799.81683,805.8608
792.96704,803.8461,803.0403,804.2491
807.8755,812.3077,810.293,800.6227
790.14655,807.47253,805.8608,780.4762
779.67035,800.6227,796.5934,776.4469
787.72894,809.4872,799.81683,810.293
786.9231,804.65204,798.20514,818.7546
777.6557,792.1612,791.3553,765.9707
785.7143,803.8461,799.011,799.41394
780.4762,795.38464,792.5641,797.3993
783.69965,795.38464,792.1612,764.35895
786.1172,817.9487,803.8461,804.65204
796.99634,817.9487,811.50183,780.87915
785.31134,813.5165,807.0696,812.71063
784.5055,805.8608,803.0403,796.99634
795.38464,820.3663,805.8608,788.1319
780.07324,799.41394,793.36993,805.05493
784.90845,803.8461,792.96704,793.7729
792.1612,800.2198,789.7436,749.85345
791.3553,800.6227,792.96704,768.3883
810.293,806.6667,797.3993,799.011
796.5934,802.6374,791.75824,773.22345
813.5165,807.8755,796.99634,796.99634
812.71063,809.4872,796.1905,782.49084
814.3223,807.47253,792.5641,764.35895
823.9927,807.8755,800.2198,793.7729
826.8132,803.0403,807.0696,818.3516
823.5897,795.78754,805.8608,808.2784
822.381,799.011,804.65204,790.14655
811.0989,801.4286,798.20514,761.13556
808.2784,799.81683,794.9817,780.87915
815.12823,801.4286,798.20514,809.89014
809.0842,804.2491,797.8022,800.6227
793.36993,805.05493,794.17584,781.685
778.46155,800.6227,788.93774,758.71796
770.80585,799.81683,787.326,776.4469
776.8498,809.89014,798.60803,812.3077
785.31134,816.337,808.2784,814.7253
779.67035,799.81683,796.99634,786.52014
768.3883,784.10254,785.7143,756.30035
768.7912,785.31134,785.7143,771.2088
775.64105,792.1612,787.72894,794.9817
787.72894,798.20514,791.3553,793.7729
778.86444,794.17584,789.7436,776.04395
770.80585,788.5348,789.7436,756.30035
776.8498,793.7729,789.7436,763.5531
788.1319,796.1905,790.54944,786.9231
796.5934,801.8315,794.57874,793.36993
798.60803,806.6667,795.78754,788.93774
798.60803,801.02563,786.9231,766.3736
798.20514,797.8022,784.90845,763.95605
801.02563,799.011,790.9524,799.41394
809.4872,801.02563,798.60803,817.1429
803.0403,803.44324,796.1905,807.8755
796.1905,803.8461,790.54944,789.34064
798.60803,799.41394,789.7436,780.4762
793.36993,801.02563,790.14655,800.6227
790.14655,806.26373,799.41394,814.3223
781.28204,805.05493,799.011,792.5641
770.40295,802.23444,796.5934,770.0
768.7912,803.44324,798.60803,789.7436
785.7143,803.8461,793.7729,818.7546
784.5055,805.8608,807.47253,806.26373
767.5824,799.81683,800.2198,807.47253
802.6374,818.7546,819.5604,800.2198
789.7436,805.4579,804.65204,767.98535
782.8938,795.38464,794.9817,774.43225
784.90845,796.1905,792.96704,792.1612
790.14655,796.5934,792.5641,788.1319
790.14655,800.2198,793.7729,776.4469
783.69965,801.4286,792.1612,755.89746
792.5641,805.4579,792.5641,782.8938
799.81683,803.0403,794.9817,806.26373
796.99634,801.4286,792.96704,811.50183
807.0696,806.6667,797.8022,791.3553
810.293,804.2491,803.0403,773.22345
810.696,803.8461,801.4286,788.93774
804.65204,805.8608,802.6374,813.5165
790.9524,804.2491,801.8315,809.89014
777.6557,799.81683,795.78754,796.5934
764.35895,791.3553,791.75824,774.43225
772.01465,791.75824,789.7436,780.87915
781.685,794.57874,789.7436,805.05493
783.2967,804.65204,789.34064,802.6374
775.2381,807.47253,790.14655,790.54944
765.9707,794.9817,788.5348,763.5531
775.64105,797.3993,790.14655,760.7326
788.1319,804.65204,800.2198,798.60803
782.0879,799.81683,795.38464,799.41394
771.6117,796.99634,788.93774,777.6557
778.46155,801.02563,788.93774,754.68866
786.52014,805.05493,788.93774,748.6447
788.5348,808.68134,790.9524,780.4762
786.9231,803.44324,790.54944,793.7729
788.93774,806.26373,795.38464,787.72894
781.685,809.89014,794.9817,765.9707
774.43225,799.81683,790.9524,755.89746
785.7143,797.3993,794.9817,787.72894
798.20514,809.4872,803.44324,823.5897
794.57874,807.8755,801.4286,817.9487
780.87915,796.99634,794.9817,787.326
769.59705,800.2198,797.3993,778.46155
779.67035,805.05493,799.41394,808.68134
790.14655,806.6667,799.81683,828.4249
785.31134,806.6667,797.8022,816.337
790.14655,802.6374,796.5934,790.9524
788.1319,799.81683,795.38464,774.43225
781.28204,803.44324,795.38464,790.14655
778.46155,804.2491,795.78754,804.2491
774.83514,806.26373,799.41394,806.26373
781.685,813.91943,810.293,792.5641
770.0,804.65204,807.8755,769.59705
757.1062,794.57874,799.81683,787.326
767.1795,796.5934,796.1905,801.8315
773.6264,799.011,796.99634,795.38464
772.01465,797.8022,789.7436,755.4945
768.3883,801.02563,792.96704,769.59705
770.0,805.4579,794.17584,807.0696
769.59705,806.26373,791.3553,804.2491
774.0293,810.293,788.5348,784.90845
771.6117,798.60803,795.38464,782.0879
789.34064,811.50183,791.3553,771.2088
799.011,800.2198,795.78754,777.25275
801.8315,799.81683,793.36993,807.47253
802.6374,804.65204,792.1612,813.1135
797.3993,801.4286,791.75824,792.5641
787.326,802.6374,791.3553,764.35895
786.9231,808.2784,793.7729,780.07324
786.9231,797.8022,794.17584,812.71063
786.52014,796.99634,791.75824,792.1612
789.7436,805.05493,796.1905,817.5458
781.685,805.8608,795.78754,768.7912
780.4762,808.2784,797.3993,765.16486
781.685,801.4286,797.8022,796.5934
787.72894,802.6374,800.2198,807.8755
779.67035,801.8315,800.2198,788.1319
774.0293,801.4286,805.05493,769.59705
772.8205,799.011,805.4579,764.35895
764.7619,794.57874,797.3993,789.7436
763.5531,797.8022,797.3993,806.26373
770.0,799.011,802.6374,794.9817
772.01465,795.38464,799.011,770.80585
773.22345,798.20514,793.7729,763.1502
782.0879,809.89014,799.011,801.8315
782.8938,809.0842,799.81683,817.1429
779.67035,799.41394,794.9817,799.81683
777.25275,797.3993,796.5934,777.25275
781.28204,800.6227,796.1905,759.12085
787.326,803.0403,796.5934,784.10254
779.2674,807.47253,797.8022,812.71063
780.07324,798.60803,792.96704,800.6227
791.3553,793.7729,788.5348,774.43225
799.011,798.20514,784.5055,756.7033
811.9048,801.8315,788.1319,777.25275
817.1429,802.23444,789.7436,806.6667
799.41394,804.65204,788.1319,801.02563
789.7436,807.47253,786.9231,781.685
787.326,802.23444,784.5055,759.92676
770.40295,801.8315,784.90845,773.22345
777.25275,803.8461,790.54944,807.47253
799.011,803.8461,795.38464,808.2784
810.293,805.4579,788.5348,791.75824
806.6667,802.23444,787.72894,772.4176
764.35895,796.99634,788.5348,780.07324
741.79486,801.8315,787.72894,816.337
763.95605,803.8461,786.52014,823.5897
773.22345,800.2198,788.93774,807.8755
783.69965,805.4579,794.57874,789.34064
792.1612,807.0696,790.9524,783.69965
793.36993,799.81683,786.9231,811.0989
799.41394,796.5934,789.34064,829.2308
802.23444,798.60803,794.57874,822.381
796.5934,793.7729,789.34064,790.54944
795.78754,793.7729,782.8938,776.4469
796.5934,796.99634,789.34064,814.7253
809.0842,802.23444,801.8315,836.08057
815.9341,803.8461,801.02563,822.7839
811.0989,801.8315,788.93774,798.20514
805.4579,803.44324,783.69965,786.1172
803.8461,801.8315,781.685,815.5311
806.26373,800.6227,783.2967,834.0659
790.54944,803.0403,786.52014,826.8132
785.31134,795.78754,786.9231,803.8461
793.7729,788.1319,786.52014,790.54944
794.9817,788.5348,786.9231,817.1429
796.1905,791.3553,787.72894,838.9011
790.9524,795.38464,790.14655,826.8132
783.2967,800.2198,788.93774,793.7729
786.1172,795.78754,784.90845,770.40295
782.0879,790.14655,786.9231,803.0403
784.90845,795.38464,788.5348,828.4249
788.5348,803.0403,788.5348,816.337
776.04395,800.6227,784.5055,792.5641
776.4469,799.41394,778.86444,764.7619
790.54944,801.8315,788.93774,790.54944
784.10254,799.011,796.99634,824.3956
774.43225,796.99634,790.14655,817.1429
778.86444,796.99634,786.52014,796.1905
780.07324,794.17584,785.31134,768.7912
782.0879,790.9524,784.5055,780.4762
777.6557,793.36993,786.9231,808.68134
782.0879,801.4286,788.1319,805.8608
789.34064,801.4286,790.9524,792.1612
794.17584,805.4579,794.9817,772.01465
794.17584,808.2784,795.38464,776.04395
784.90845,806.26373,801.02563,821.5751
780.07324,805.4579,806.6667,842.52747
773.22345,793.36993,793.36993,780.4762
780.4762,799.41394,801.02563,817.9487
771.6117,795.78754,791.3553,782.49084
784.10254,802.6374,790.9524,815.9341
782.49084,801.02563,790.9524,819.5604
769.19415,797.8022,792.96704,801.02563
758.71796,799.011,791.3553,767.1795
753.8828,793.36993,788.93774,757.1062
754.68866,799.41394,787.72894,791.75824
756.7033,810.293,790.14655,804.2491
758.71796,802.23444,791.75824,790.54944
758.315,791.75824,785.31134,759.12085
755.09155,793.7729,784.5055,742.1978
766.77655,797.8022,784.5055,772.4176
782.49084,801.4286,784.5055,794.57874
789.7436,804.65204,787.72894,781.28204
788.93774,806.26373,792.96704,761.13556
780.4762,806.26373,795.38464,755.09155
790.14655,807.8755,795.78754,788.1319
801.02563,806.26373,796.1905,811.50183
801.4286,810.293,793.7729,807.0696
811.9048,817.1429,795.38464,790.14655
822.7839,816.7399,796.1905,771.6117
823.1868,808.68134,791.3553,791.75824
796.5934,802.23444,786.9231,819.15753
776.8498,803.44324,791.75824,816.337
784.10254,805.8608,793.36993,795.78754
782.49084,802.6374,789.34064,763.95605
763.95605,799.011,792.5641,780.87915
774.83514,800.2198,792.1612,817.1429
793.36993,800.2198,789.7436,814.7253
780.4762,796.99634,789.7436,790.9524
763.95605,793.36993,787.72894,756.30035
772.01465,801.8315,790.9524,768.7912
774.83514,799.41394,794.57874,801.4286
778.0586,791.75824,792.5641,796.5934
776.04395,795.38464,788.1319,780.87915
775.2381,794.9817,788.5348,761.9414
782.8938,793.36993,787.326,767.1795
785.7143,794.17584,787.326,805.8608
795.38464,795.78754,791.3553,802.23444
791.75824,799.41394,792.1612,768.3883
796.99634,796.99634,791.75824,822.7839
798.20514,801.8315,791.75824,770.80585
798.60803,802.6374,794.57874,809.4872
804.65204,809.0842,803.8461,824.3956
803.44324,805.05493,801.8315,799.41394
801.4286,794.57874,792.5641,762.74725
794.9817,790.54944,792.96704,796.5934
788.93774,791.75824,791.75824,816.7399
803.8461,788.1319,789.34064,751.06226
790.9524,798.60803,793.7729,795.38464
771.6117,799.011,792.1612,769.19415
762.3443,794.9817,792.1612,763.95605
770.80585,799.81683,796.1905,797.3993
773.6264,801.02563,795.78754,813.91943
781.685,803.44324,795.38464,799.81683
786.9231,802.6374,795.78754,767.1795
778.0586,797.3993,792.96704,736.1539
774.0293,790.14655,789.7436,770.0
786.1172,800.6227,805.4579,811.0989
767.98535,791.75824,790.9524,761.13556
779.67035,801.02563,803.44324,794.57874
773.22345,798.20514,790.54944,734.5421
789.34064,798.60803,794.57874,805.05493
800.6227,798.20514,791.3553,804.2491
794.17584,793.36993,795.38464,779.2674
792.5641,792.1612,793.7729,756.30035
799.81683,793.7729,789.7436,778.86444
811.50183,797.3993,793.36993,810.293
815.5311,797.8022,799.41394,810.293
813.91943,801.8315,803.44324,796.5934
808.2784,794.9817,788.93774,756.30035
809.4872,790.54944,785.31134,768.3883
773.22345,800.2198,791.75824,759.12085
784.90845,790.14655,790.54944,814.7253
753.8828,788.93774,788.1319,814.3223
753.0769,788.1319,792.1612,799.41394
766.77655,788.93774,791.3553,789.7436
755.4945,784.10254,792.96704,780.07324
785.31134,799.81683,800.2198,833.2601
790.9524,795.38464,801.02563,838.0952
789.34064,791.3553,794.17584,817.1429
795.78754,796.99634,794.17584,794.9817
801.8315,799.81683,796.1905,794.9817
799.41394,800.6227,797.8022,829.2308
796.99634,801.02563,796.99634,836.08057
800.6227,798.60803,790.9524,818.7546
800.6227,793.36993,786.52014,796.1905
799.81683,790.54944,786.9231,784.10254
818.7546,796.1905,791.75824,841.7216
803.0403,799.011,788.5348,820.3663
792.5641,799.41394,787.326,787.326
800.6227,800.6227,790.54944,774.83514
810.293,796.1905,792.96704,817.9487
804.65204,794.57874,796.1905,838.49817
799.011,801.02563,794.17584,813.1135
799.011,803.0403,793.7729,783.2967
813.5165,792.96704,791.3553,821.5751
796.5934,801.02563,795.38464,770.80585
800.6227,804.2491,792.5641,806.26373
807.8755,810.293,796.1905,837.6923
799.81683,809.4872,802.6374,831.2454
791.75824,805.05493,799.81683,794.17584
791.75824,802.6374,794.9817,770.80585
788.5348,803.8461,799.41394,803.0403
807.0696,819.9634,818.3516,849.3773
803.44324,815.9341,808.68134,831.2454
786.9231,799.81683,792.1612,792.5641
784.10254,797.3993,791.75824,773.22345
780.4762,795.78754,792.5641,797.8022
782.0879,797.8022,793.7729,832.0513
789.34064,796.99634,791.3553,796.5934
781.28204,798.60803,790.14655,817.9487
791.3553,793.7729,790.9524,777.6557
794.57874,796.1905,796.1905,822.381
792.5641,790.9524,791.75824,786.1172
800.6227,803.0403,797.8022,820.7692
803.8461,809.89014,804.2491,802.23444
788.5348,798.20514,798.20514,764.35895
777.6557,789.34064,786.9231,763.1502
777.6557,796.5934,785.7143,801.02563
776.4469,797.3993,789.34064,797.8022
774.83514,795.38464,791.3553,780.4762
767.98535,801.8315,784.90845,741.39197
769.19415,803.44324,788.93774,748.24176
780.4762,799.011,783.2967,786.52014
770.40295,798.20514,786.52014,804.65204
761.9414,801.8315,786.9231,790.14655
784.10254,808.2784,785.7143,766.77655
782.49084,799.011,778.46155,758.71796
780.87915,795.38464,778.0586,797.3993
792.96704,799.011,784.5055,812.3077
794.17584,804.65204,789.34064,796.5934
792.1612,798.60803,782.49084,774.0293
784.90845,789.7436,777.6557,772.8205
790.54944,791.75824,784.90845,816.337
796.1905,793.36993,789.34064,839.707
796.99634,792.96704,786.52014,822.7839
794.57874,798.20514,787.326,796.1905
792.5641,803.8461,791.3553,783.69965
797.8022,800.2198,791.3553,814.7253
798.60803,805.05493,789.7436,832.8571
784.90845,795.38464,783.69965,798.20514
783.69965,791.3553,786.9231,767.5824
793.36993,799.41394,797.8022,754.68866
782.8938,796.1905,792.1612,776.4469
776.4469,794.57874,786.1172,799.41394
786.9231,799.81683,790.14655,788.1319
791.3553,800.2198,788.93774,763.1502
775.2381,802.23444,792.5641,749.85345
765.16486,796.5934,794.57874,774.43225
773.6264,793.36993,792.96704,813.1135
784.90845,798.60803,798.60803,813.91943
785.31134,793.7729,796.99634,786.52014
788.1319,786.1172,791.3553,759.12085
801.8315,798.20514,801.02563,790.14655
807.8755,800.6227,801.8315,832.4542
802.23444,796.5934,795.38464,830.84247
799.41394,805.05493,794.9817,818.3516
800.6227,807.47253,794.9817,797.8022
806.26373,801.02563,786.52014,798.20514
812.71063,800.2198,790.14655,837.6923
812.71063,803.8461,796.99634,854.21246
813.1135,806.26373,793.7729,827.619
806.6667,801.8315,793.36993,794.17584
787.326,797.3993,789.34064,792.1612
790.14655,805.4579,797.8022,834.0659
797.8022,815.12823,814.7253,845.34796
792.1612,801.02563,801.8315,802.6374
781.685,792.5641,787.72894,753.47986
773.6264,793.36993,788.93774,745.0183
775.2381,797.3993,793.7729,791.3553
776.4469,794.57874,795.78754,775.2381
776.4469,803.44324,795.38464,798.60803
785.7143,798.60803,798.60803,759.5238
792.96704,803.8461,795.38464,749.45056
791.3553,791.75824,791.3553,779.2674
801.4286,787.326,791.75824,795.78754
817.5458,797.3993,800.6227,799.011
796.1905,797.8022,795.78754,780.4762
784.10254,794.17584,788.5348,763.1502
789.7436,798.60803,789.34064,803.8461
792.96704,797.3993,791.3553,830.4396
796.99634,800.2198,794.9817,819.15753
799.41394,802.23444,790.9524,790.9524
791.3553,794.9817,784.5055,762.74725
786.1172,790.14655,782.49084,787.72894
786.9231,797.3993,784.5055,822.7839
781.28204,799.41394,785.7143,814.7253
782.0879,792.5641,786.9231,790.54944
794.57874,790.54944,788.93774,766.77655
794.17584,790.54944,791.3553,786.52014
774.43225,789.34064,791.75824,814.3223
769.59705,790.54944,792.1612,806.26373
757.1062,790.54944,794.57874,770.40295
745.0183,785.31134,790.54944,736.55676
753.47986,784.10254,790.9524,753.8828
763.5531,790.54944,793.36993,782.0879
772.01465,792.96704,790.9524,782.0879
774.83514,791.75824,788.5348,766.3736
778.46155,793.36993,785.31134,739.3773
805.05493,807.8755,803.44324,771.2088
816.7399,801.8315,808.68134,821.5751
792.1612,782.0879,795.78754,811.9048
782.49084,780.4762,793.36993,789.7436
798.60803,787.326,794.9817,776.4469
802.6374,790.14655,793.7729,777.25275
802.6374,794.17584,794.57874,815.9341
809.89014,797.8022,797.3993,829.6337
813.91943,794.9817,796.5934,801.8315
809.89014,798.60803,792.96704,770.0
806.6667,796.5934,788.93774,766.3736
815.9341,805.4579,801.02563,815.5311
830.4396,826.4103,819.5604,850.18317
795.78754,799.011,803.44324,814.3223
770.40295,776.4469,794.17584,776.4469
779.2674,783.2967,796.5934,764.7619
773.22345,785.7143,793.36993,790.9524
767.5824,784.5055,790.14655,807.47253
772.4176,787.326,794.57874,761.9414
759.92676,782.49084,796.99634,743.4066
776.4469,785.7143,789.7436,790.14655
760.32965,785.7143,794.9817,776.04395
767.1795,799.011,799.81683,807.47253
778.46155,803.8461,804.2491,795.38464
775.2381,796.99634,796.1905,759.92676
771.2088,790.14655,789.34064,740.18317
771.2088,789.7436,792.5641,771.2088
769.19415,790.14655,797.3993,803.44324
782.8938,795.38464,798.60803,795.38464
788.1319,796.1905,793.7729,774.43225
778.86444,790.14655,792.1612,751.4652
787.72894,792.1612,794.9817,779.67035
786.9231,792.5641,793.36993,812.3077
784.5055,785.31134,789.34064,804.65204
786.52014,789.34064,786.9231,784.5055
781.28204,790.54944,786.52014,766.3736
786.9231,790.14655,789.34064,782.8938
788.1319,792.96704,794.17584,819.9634
791.75824,793.36993,798.60803,828.4249
791.3553,799.41394,801.02563,814.3223
772.4176,794.17584,791.3553,778.0586
763.1502,786.52014,788.5348,776.8498
761.53845,784.90845,791.75824,810.293
760.7326,785.7143,792.1612,805.8608
766.3736,786.1172,788.5348,783.69965
769.59705,789.7436,788.93774,747.8388
788.93774,811.0989,806.6667,767.98535
800.6227,806.6667,805.8608,812.3077
785.7143,793.7729,800.2198,813.1135
780.4762,798.20514,804.2491,793.36993
792.1612,806.6667,804.2491,764.35895
792.96704,799.81683,796.5934,759.12085
797.3993,795.38464,798.60803,799.81683
805.8608,804.65204,809.0842,824.7985
801.02563,801.4286,805.05493,801.8315
802.23444,794.17584,796.1905,764.35895
809.4872,796.1905,794.9817,754.2857
813.5165,803.0403,803.8461,797.3993
814.3223,807.8755,809.89014,819.5604
806.6667,809.0842,805.4579,799.011
798.20514,801.4286,796.99634,770.40295
797.8022,796.1905,799.011,770.40295
807.0696,801.4286,814.7253,817.5458
800.6227,796.1905,813.1135,835.6777
786.9231,788.1319,803.8461,820.3663
790.14655,790.9524,806.6667,805.8608
769.19415,796.99634,803.44324,804.65204
782.8938,790.9524,803.44324,785.31134
774.43225,805.8608,808.2784,836.8865
782.0879,804.65204,813.5165,832.0513
781.28204,805.8608,809.89014,804.2491
770.40295,806.26373,803.0403,764.35895
775.64105,804.2491,806.6667,778.0586
795.78754,815.5311,830.84247,841.31866
781.28204,810.293,828.022,831.6484
763.1502,791.3553,803.8461,774.83514
767.5824,786.9231,796.5934,738.97437
765.9707,794.57874,795.38464,742.1978
761.53845,801.8315,796.5934,770.0
758.315,799.41394,796.1905,771.6117
771.6117,806.26373,801.02563,754.2857
757.50916,795.38464,803.8461,734.1392
757.50916,795.38464,803.44324,750.2564
767.1795,800.2198,802.6374,795.78754
770.40295,806.26373,805.8608,803.8461
782.0879,811.0989,816.7399,803.0403
777.6557,797.8022,809.89014,776.8498
767.98535,788.1319,805.4579,767.1795
782.0879,792.5641,812.71063,810.696
778.86444,792.1612,805.8608,815.9341
755.4945,791.3553,801.02563,762.74725
760.32965,791.3553,799.011,792.96704
759.92676,789.7436,803.0403,752.27106
769.19415,794.9817,804.2491,789.7436
774.43225,800.2198,804.2491,804.2491
776.8498,798.60803,802.23444,794.57874
779.2674,798.20514,803.0403,772.4176
770.80585,792.96704,801.02563,757.1062
764.7619,788.5348,806.6667,797.8022
759.92676,788.93774,811.50183,821.1722
751.4652,788.5348,809.89014,800.6227
754.2857,789.7436,807.0696,763.5531
751.06226,786.1172,804.2491,730.5128
754.2857,788.5348,806.26373,760.32965
767.5824,796.99634,812.3077,791.3553
772.8205,794.17584,807.0696,777.6557
763.5531,790.14655,794.57874,748.24176
774.83514,805.8608,805.8608,746.63007
806.6667,827.2161,828.8278,806.6667
788.5348,805.05493,809.89014,814.3223
766.3736,786.9231,792.96704,784.10254
769.59705,786.52014,799.41394,770.0
770.0,790.14655,809.89014,750.2564
757.9121,787.326,805.8608,772.4176
757.1062,784.90845,801.4286,802.6374
763.1502,793.7729,805.8608,800.2198
754.68866,789.7436,803.8461,780.4762
750.65936,783.2967,797.8022,744.61536
758.315,788.1319,797.8022,751.8681
765.56775,802.23444,805.8608,801.8315
760.32965,799.011,800.6227,800.6227
755.89746,788.1319,789.7436,765.9707
756.7033,788.1319,789.34064,729.304
765.56775,787.326,793.36993,732.52747
778.0586,792.1612,792.96704,773.6264
783.69965,799.41394,793.7729,780.87915
774.83514,792.96704,793.7729,739.7802
766.3736,789.7436,805.8608,788.93774
780.4762,801.4286,809.4872,805.05493
781.28204,796.1905,809.4872,788.93774
770.80585,790.14655,795.38464,740.989
780.87915,797.8022,796.1905,770.80585
775.64105,788.5348,812.3077,751.4652
778.46155,790.14655,805.4579,738.1685
802.23444,799.011,813.5165,788.1319
819.9634,810.293,829.2308,816.7399
789.7436,795.38464,811.9048,785.7143
773.22345,782.0879,794.57874,742.6007
770.80585,778.86444,787.326,722.0513
772.01465,780.87915,790.54944,763.1502
771.2088,787.326,797.8022,799.011
763.5531,790.54944,799.81683,786.1172
762.74725,796.1905,800.2198,754.2857
759.12085,797.3993,795.38464,739.3773
764.35895,794.17584,799.81683,783.2967
774.43225,786.52014,808.68134,814.7253
779.67035,793.36993,819.5604,809.0842
774.43225,789.7436,811.50183,765.16486
768.7912,777.25275,799.011,731.7216
774.83514,780.87915,802.6374,776.4469
793.7729,779.67035,804.2491,795.38464
785.31134,778.0586,807.0696,806.6667
798.20514,796.99634,792.1612,762.3443
813.5165,797.8022,799.81683,813.1135
805.4579,790.9524,795.38464,767.5824
808.2784,794.17584,797.8022,813.91943
803.8461,793.7729,788.93774,734.94507
811.50183,805.05493,813.1135,776.04395
800.2198,797.8022,801.4286,792.1612
801.4286,791.3553,801.8315,828.022
805.8608,801.02563,805.4579,789.7436
807.8755,791.3553,809.89014,830.4396
801.4286,794.57874,803.0403,796.1905
792.5641,791.75824,792.1612,756.7033
786.1172,793.36993,788.5348,767.5824
782.0879,794.9817,791.3553,811.50183
773.6264,792.1612,799.011,809.89014
777.6557,794.9817,799.011,825.6044
763.95605,783.69965,794.17584,766.3736
779.2674,805.8608,813.5165,785.31134
779.67035,807.47253,814.3223,832.4542
767.1795,797.8022,795.38464,802.6374
767.1795,794.9817,802.6374,828.8278
763.1502,800.2198,788.93774,763.1502
784.90845,796.1905,792.5641,790.9524
796.5934,794.57874,791.75824,759.5238
805.8608,791.75824,790.54944,749.0476
813.1135,801.8315,797.8022,797.8022
819.15753,807.47253,814.7253,842.9304
817.9487,794.57874,806.26373,829.2308
815.9341,786.9231,791.75824,802.23444
826.4103,793.36993,791.75824,786.52014
764.35895,796.5934,791.3553,755.09155
777.6557,790.9524,786.52014,795.38464
781.28204,793.36993,787.72894,812.71063
818.7546,799.41394,800.6227,829.2308
807.47253,798.20514,802.23444,860.2564
814.3223,804.2491,802.23444,840.5128
819.9634,814.3223,811.0989,821.1722
809.89014,802.6374,798.60803,780.07324
808.68134,803.8461,796.99634,796.1905
803.0403,805.4579,805.05493,827.619
780.07324,792.5641,800.2198,808.2784
771.2088,791.75824,796.1905,772.01465
762.74725,791.75824,789.34064,734.94507
760.32965,790.14655,794.9817,762.74725
785.7143,817.5458,823.5897,839.304
772.4176,806.26373,811.9048,822.381
754.2857,788.93774,794.9817,773.6264
756.7033,789.7436,800.6227,743.00366
756.30035,782.49084,802.23444,768.3883
764.7619,789.34064,809.4872,833.2601
776.04395,798.20514,805.05493,836.8865
784.5055,807.8755,802.23444,809.89014
797.3993,825.6044,814.7253,790.54944
793.7729,815.12823,804.65204,798.60803
795.38464,795.78754,798.60803,831.6484
805.4579,802.23444,807.8755,845.7509
799.41394,805.4579,799.011,822.7839
790.9524,798.60803,788.1319,770.80585
790.9524,800.2198,791.75824,769.59705
794.17584,805.8608,796.5934,820.7692
797.8022,806.26373,801.8315,824.3956
801.8315,801.4286,801.02563,792.96704
789.34064,806.26373,803.8461,775.64105
799.81683,825.6044,826.4103,793.36993
797.3993,808.2784,821.1722,826.8132
776.8498,789.34064,807.47253,834.4689
784.90845,795.38464,804.2491,810.293
783.69965,799.011,801.4286,772.01465
771.2088,794.17584,799.011,762.3443
759.12085,787.72894,803.8461,797.3993
758.315,790.9524,810.293,817.5458
750.2564,792.5641,807.47253,796.5934
745.42126,790.14655,801.8315,760.7326
747.03296,787.72894,794.9817,736.1539
752.27106,793.36993,801.4286,770.0
763.5531,796.5934,809.0842,807.0696
765.9707,800.2198,805.4579,803.8461
776.04395,801.4286,803.44324,770.80585
792.1612,803.0403,811.50183,749.85345
815.5311,816.7399,826.0073,804.2491
808.68134,807.0696,820.7692,830.0366
791.3553,796.5934,808.68134,805.8608
814.3223,795.38464,801.4286,757.9121
807.47253,795.38464,801.8315,787.72894
797.3993,796.1905,807.8755,835.2747
796.99634,809.0842,808.68134,829.2308
787.72894,813.5165,802.6374,800.2198
800.2198,796.99634,806.26373,787.326
772.01465,799.011,799.81683,761.9414
775.2381,792.96704,806.26373,782.0879
805.4579,815.12823,828.022,846.9597
796.99634,810.696,809.4872,815.12823
786.9231,795.38464,790.14655,761.53845
784.90845,798.20514,798.20514,734.5421
776.8498,791.75824,803.0403,753.47986
765.56775,782.8938,804.65204,800.2198
757.1062,789.7436,806.26373,800.6227
752.27106,790.9524,809.89014,786.9231
753.0769,792.96704,811.50183,763.95605
762.3443,791.75824,803.8461,765.56775
765.56775,792.96704,799.81683,809.4872
781.28204,800.6227,812.71063,830.0366
801.02563,805.4579,822.7839,821.978
790.54944,792.1612,807.8755,780.4762
780.4762,788.93774,798.20514,770.40295
789.34064,796.1905,803.8461,818.7546
788.5348,796.5934,804.65204,828.8278
776.4469,794.9817,800.6227,806.26373
769.59705,792.5641,807.0696,769.19415
776.4469,793.7729,809.0842,746.63007
780.87915,801.02563,803.8461,788.93774
767.5824,796.99634,798.20514,781.28204
786.1172,802.6374,801.4286,767.1795
790.9524,791.3553,801.02563,740.18317
770.80585,797.3993,801.8315,803.44324
779.67035,782.8938,798.60803,763.95605
782.0879,790.54944,802.6374,798.60803
777.6557,786.9231,800.6227,791.3553
777.25275,786.9231,798.20514,763.95605
781.28204,792.96704,799.011,743.00366
787.326,790.9524,799.41394,779.2674
788.5348,784.5055,800.2198,812.71063
780.4762,783.2967,800.2198,804.2491
781.28204,786.1172,795.38464,782.8938
798.20514,805.05493,803.8461,770.0
826.4103,823.9927,832.0513,830.0366
821.1722,802.23444,828.022,861.8681
794.57874,772.01465,803.8461,819.5604
788.93774,774.0293,796.99634,778.0586
787.72894,779.2674,796.5934,748.24176
787.72894,786.1172,787.72894,765.9707
796.99634,794.57874,792.1612,811.9048
793.7729,793.7729,803.44324,820.7692
783.69965,786.52014,792.96704,785.7143
782.0879,786.52014,781.28204,735.7509
775.2381,785.7143,785.7143,744.61536
794.9817,798.60803,805.4579,815.5311
803.8461,802.23444,803.44324,820.7692
778.46155,787.326,787.326,776.8498
763.1502,784.90845,780.07324,734.94507
766.3736,788.93774,780.07324,735.7509
767.1795,790.9524,786.52014,788.5348
767.5824,790.14655,786.52014,801.02563
779.67035,791.75824,785.31134,776.4469
778.46155,788.5348,780.07324,740.58606
780.87915,788.93774,778.86444,736.55676
782.8938,791.3553,781.685,787.72894
798.60803,796.5934,790.54944,823.9927
810.293,805.8608,803.8461,818.7546
792.5641,794.17584,791.75824,772.01465
774.83514,781.685,781.28204,753.0769
783.69965,799.81683,801.4286,808.68134
782.49084,801.02563,803.44324,838.9011
772.8205,782.8938,786.1172,808.68134
788.1319,784.5055,788.93774,784.10254
792.96704,782.49084,788.93774,774.0293
794.17584,784.5055,789.7436,837.28937
792.96704,782.49084,788.1319,811.50183
802.23444,794.17584,792.96704,827.2161
822.7839,818.7546,810.696,825.6044
802.23444,807.0696,794.9817,791.3553
786.9231,790.14655,778.0586,801.02563
790.9524,790.9524,790.14655,834.87177
788.1319,788.1319,792.1612,818.7546
790.54944,791.75824,790.9524,780.4762
787.72894,792.5641,790.9524,752.27106
792.96704,788.5348,797.8022,780.4762
802.6374,788.1319,802.23444,811.0989
791.75824,786.52014,792.96704,794.9817
776.4469,782.0879,788.1319,763.1502
782.0879,785.31134,793.36993,742.6007
790.14655,787.72894,795.78754,767.5824
793.36993,792.5641,793.7729,804.65204
785.7143,786.9231,788.1319,818.3516
790.9524,782.0879,792.5641,809.0842
804.65204,792.5641,801.4286,782.49084
804.65204,790.14655,791.75824,789.7436
799.41394,786.52014,789.7436,828.8278
785.7143,791.75824,790.9524,834.87177
775.64105,787.72894,781.28204,810.293
774.43225,784.5055,779.67035,769.59705
780.4762,792.96704,785.7143,774.83514
783.2967,812.71063,800.2198,826.8132
776.4469,792.1612,784.90845,789.34064
790.14655,785.7143,790.14655,776.8498
776.8498,811.50183,796.5934,820.7692
817.5458,809.89014,809.89014,798.20514
802.6374,786.52014,793.7729,828.8278
810.696,799.81683,803.0403,826.4103
809.0842,792.96704,796.99634,819.5604
806.26373,790.9524,794.57874,779.67035
806.26373,792.1612,798.20514,763.1502
806.6667,796.5934,801.8315,805.05493
797.8022,799.41394,795.38464,817.5458
793.7729,799.41394,793.36993,803.0403
792.5641,797.8022,794.17584,771.6117
790.14655,793.7729,788.5348,747.03296
778.46155,799.011,793.36993,791.3553
763.5531,793.7729,791.75824,810.696
753.8828,789.7436,784.90845,786.9231
751.8681,792.96704,787.72894,763.95605
781.685,801.02563,801.4286,807.8755
780.87915,789.7436,790.9524,810.293
784.90845,795.78754,795.38464,830.4396
782.8938,789.7436,789.7436,787.72894
782.0879,793.7729,788.5348,758.315
788.1319,794.9817,790.9524,786.1172
795.38464,791.75824,791.75824,823.5897
798.60803,804.65204,804.65204,834.87177
799.011,797.8022,803.0403,816.337
785.31134,782.8938,785.7143,765.56775
790.14655,789.7436,786.1172,788.1319
763.95605,793.7729,794.9817,754.2857
801.4286,791.3553,792.96704,840.10986
803.0403,789.7436,791.3553,834.0659
802.6374,794.57874,787.72894,809.89014
797.8022,793.7729,787.326,775.2381
799.011,798.20514,792.1612,788.1319
797.8022,806.26373,798.60803,841.31866
799.81683,797.8022,794.17584,837.28937
803.8461,799.81683,790.54944,805.05493
805.4579,807.8755,796.99634,781.28204
791.75824,795.78754,791.75824,784.10254
788.5348,788.93774,790.14655,827.2161
798.60803,796.5934,795.38464,830.4396
787.72894,789.7436,790.9524,803.8461
762.74725,778.46155,789.7436,776.04395
757.9121,780.87915,793.7729,772.4176
765.56775,791.75824,796.1905,821.1722
773.6264,790.14655,794.57874,832.0513
770.80585,786.1172,792.1612,806.6667
771.2088,793.7729,793.7729,780.07324
794.57874,814.3223,805.8608,780.87915
804.65204,812.3077,802.6374,819.5604
791.3553,795.38464,790.9524,829.2308
798.20514,795.38464,789.7436,815.12823
799.011,803.0403,784.90845,780.87915
794.57874,803.0403,779.2674,761.9414
802.23444,803.0403,784.10254,809.4872
804.2491,808.68134,806.6667,854.61536
808.68134,810.696,816.337,840.10986
804.2491,798.60803,801.4286,794.57874
797.8022,793.7729,795.78754,767.98535
805.05493,801.4286,806.6667,808.2784
822.7839,815.9341,826.0073,861.4652
803.0403,803.8461,811.0989,835.2747
792.1612,791.75824,793.36993,780.87915
796.1905,790.14655,793.36993,751.8681
782.0879,783.2967,801.02563,779.2674
774.43225,784.5055,810.293,821.5751
771.6117,788.1319,804.2491,805.05493
768.3883,795.38464,797.3993,767.1795
770.80585,799.41394,791.75824,731.7216
774.0293,792.1612,793.7729,754.2857
777.25275,794.9817,804.2491,803.8461
785.7143,805.05493,817.5458,824.7985
789.7436,802.6374,818.7546,807.8755
776.04395,790.54944,799.41394,753.8828
770.80585,788.5348,795.78754,761.9414
778.46155,792.5641,804.65204,826.0073
784.90845,801.4286,806.26373,839.304
778.86444,801.4286,798.20514,815.12823
786.1172,795.38464,793.7729,787.72894
797.8022,799.41394,797.8022,799.81683
793.36993,798.20514,796.99634,836.8865
794.9817,791.3553,799.011,840.9158
800.6227,799.011,799.81683,822.7839
796.1905,807.8755,798.20514,781.28204
793.7729,801.8315,793.36993,771.2088
798.60803,794.9817,797.8022,825.2015
813.91943,806.6667,809.4872,842.9304
821.978,817.1429,818.7546,829.2308
802.6374,806.26373,804.65204,781.685
794.57874,791.3553,793.36993,754.2857
798.60803,790.54944,797.8022,799.41394
797.8022,791.3553,793.36993,807.0696
788.1319,794.17584,793.36993,782.0879
786.52014,799.011,796.5934,761.9414
788.1319,791.3553,796.5934,753.8828
776.4469,791.3553,807.8755,844.1392
772.8205,788.1319,802.23444,821.1722
774.43225,783.69965,796.1905,793.7729
781.685,788.1319,803.0403,806.6667
777.6557,785.31134,798.60803,772.4176
776.8498,788.93774,799.81683,800.2198
775.2381,795.38464,804.65204,830.84247
827.619,821.978,827.619,836.8865
786.1172,790.9524,794.57874,764.35895
784.5055,794.57874,791.3553,780.4762
798.20514,799.81683,793.36993,830.0366
817.1429,830.0366,837.6923,859.0476
792.96704,790.54944,790.14655,787.72894
794.17584,807.47253,803.8461,768.7912
827.619,840.10986,843.3333,824.7985
807.8755,822.381,829.6337,841.31866
762.3443,791.75824,795.78754,803.8461
801.02563,795.38464,794.17584,823.5897
769.19415,796.99634,800.2198,789.7436
772.8205,796.1905,802.23444,755.09155
767.1795,787.326,796.99634,759.12085
773.22345,792.5641,798.20514,803.0403
782.0879,797.3993,801.8315,808.2784
788.93774,800.2198,798.20514,790.14655
792.1612,798.60803,789.7436,751.06226
795.78754,796.5934,794.57874,757.9121
818.7546,815.9341,824.7985,841.31866
804.65204,805.4579,813.91943,844.94507
774.0293,785.31134,784.10254,796.99634
766.3736,785.7143,782.8938,764.35895
768.3883,788.5348,788.1319,767.1795
780.07324,790.9524,792.1612,814.3223
770.40295,780.07324,791.75824,825.6044
772.8205,787.326,796.99634,807.47253
779.67035,796.1905,796.99634,769.19415
763.95605,784.90845,786.1172,749.0476
764.7619,783.2967,785.7143,792.5641
780.07324,801.8315,799.81683,828.4249
794.17584,810.293,815.5311,828.4249
789.7436,794.57874,803.0403,779.2674
776.4469,790.54944,790.9524,744.21246
776.4469,793.7729,796.99634,792.96704
772.4176,791.3553,797.8022,825.2015
767.1795,787.72894,789.34064,809.89014
775.2381,788.93774,788.5348,778.86444
777.6557,795.78754,792.1612,754.68866
775.64105,793.36993,789.7436,790.54944
777.25275,791.3553,788.5348,816.337
774.43225,799.41394,791.3553,797.3993
803.44324,828.8278,821.5751,794.9817
809.89014,825.6044,826.0073,776.8498
779.2674,795.38464,796.99634,772.4176
778.46155,792.1612,794.9817,807.8755
782.8938,792.96704,796.99634,812.71063
794.17584,792.5641,793.7729,783.69965
789.7436,792.96704,792.5641,776.8498
793.7729,792.96704,790.9524,749.45056
784.90845,801.02563,796.1905,825.6044
794.17584,798.60803,796.5934,830.0366
777.25275,793.7729,789.34064,792.5641
789.34064,801.8315,792.5641,771.6117
811.0989,827.2161,815.9341,809.89014
785.31134,811.0989,804.65204,839.707
769.59705,788.93774,786.1172,829.2308
784.10254,797.8022,792.5641,813.5165
786.9231,801.4286,796.1905,778.46155
780.4762,796.5934,786.9231,775.2381
785.31134,796.5934,793.7729,823.9927
785.31134,791.75824,799.41394,836.4835
783.2967,787.72894,794.9817,808.2784
778.86444,785.31134,790.14655,767.1795
777.6557,797.3993,790.9524,772.4176
795.38464,815.9341,809.4872,832.8571
803.44324,805.05493,810.293,838.9011
784.90845,789.7436,799.81683,805.4579
773.6264,787.326,798.20514,768.3883
782.8938,789.34064,801.02563,755.89746
783.2967,788.93774,801.02563,793.7729
777.6557,788.5348,799.81683,815.5311
778.0586,786.9231,796.99634,797.3993
784.10254,789.7436,794.17584,768.7912
787.72894,790.14655,794.57874,759.12085
791.75824,788.5348,798.20514,803.8461
806.26373,798.60803,807.0696,842.9304
809.0842,801.02563,809.89014,835.6777
797.3993,803.0403,805.8608,798.60803
801.4286,801.4286,815.12823,818.7546
791.75824,800.6227,800.2198,768.7912
829.6337,821.5751,839.707,874.35895
810.293,812.71063,817.9487,835.2747
786.52014,797.3993,801.4286,789.34064
789.7436,799.011,802.6374,765.16486
790.54944,800.6227,800.6227,788.1319
789.34064,803.44324,804.65204,829.2308
775.64105,801.02563,810.696,830.84247
773.22345,799.011,812.3077,799.41394
765.16486,797.8022,808.2784,753.47986
761.9414,792.1612,804.2491,769.19415
783.69965,807.8755,818.7546,824.3956
777.25275,795.78754,809.0842,818.3516
769.19415,801.02563,809.0842,787.72894
761.13556,792.5641,803.0403,745.0183
766.3736,796.1905,808.2784,771.6117
765.9707,803.0403,808.68134,823.9927
770.0,794.17584,805.05493,810.293
777.25275,792.5641,807.8755,785.31134
776.8498,801.4286,807.8755,762.74725
784.5055,806.26373,810.293,777.6557
787.326,802.6374,813.5165,829.6337
776.8498,803.44324,815.12823,838.0952
782.8938,799.81683,819.15753,818.3516
803.8461,801.02563,823.9927,789.34064
791.75824,799.81683,812.3077,782.49084
784.10254,797.8022,809.0842,828.8278
788.1319,801.4286,809.89014,841.7216
790.54944,801.8315,808.68134,824.3956
792.96704,795.78754,809.0842,788.5348
792.5641,799.41394,805.8608,774.43225
792.5641,807.0696,809.4872,821.978
788.5348,807.8755,813.91943,840.10986
786.1172,799.41394,805.05493,786.1172
805.8608,812.3077,818.3516,779.67035
782.49084,806.26373,809.89014,817.5458
805.8608,809.4872,820.3663,812.3077
788.1319,790.9524,805.05493,821.978
779.67035,794.57874,802.6374,807.47253
773.6264,795.78754,802.23444,778.0586
772.01465,792.96704,801.02563,757.9121
783.69965,797.3993,803.8461,794.17584
791.75824,803.8461,801.02563,821.978
771.6117,803.8461,801.4286,805.8608
771.2088,803.8461,805.4579,780.4762
778.86444,799.41394,799.011,753.8828
784.10254,800.2198,802.6374,783.69965
801.02563,815.5311,821.1722,830.84247
787.326,807.0696,816.7399,813.1135
772.8205,788.93774,804.65204,781.685
784.5055,794.57874,803.44324,760.32965
792.1612,796.5934,801.02563,785.31134
789.7436,792.96704,801.8315,820.3663
793.36993,793.36993,805.4579,802.6374
788.5348,791.75824,804.2491,761.53845
785.7143,798.20514,803.8461,771.2088
793.7729,798.60803,811.50183,822.381
789.7436,790.14655,815.9341,828.022
792.96704,793.36993,802.6374,817.9487
787.326,791.75824,814.7253,801.4286
788.93774,789.7436,806.6667,759.12085
795.78754,789.34064,810.696,768.3883
825.2015,817.1429,841.31866,841.31866
821.978,822.7839,842.1245,848.5714
788.1319,802.6374,817.1429,799.41394
768.3883,785.31134,806.26373,751.06226
781.28204,792.96704,810.696,805.4579
786.9231,788.93774,809.89014,824.3956
803.0403,804.65204,815.9341,813.5165
822.381,830.84247,835.6777,798.20514
794.9817,802.6374,812.71063,762.74725
784.5055,780.07324,796.99634,795.38464
792.96704,791.75824,809.0842,830.84247
767.1795,788.1319,808.2784,753.8828
799.41394,796.5934,810.696,811.50183
795.78754,786.9231,802.6374,770.40295
785.7143,790.9524,796.5934,755.09155
792.96704,805.8608,810.696,810.293
769.19415,794.9817,805.4579,809.89014
765.16486,793.36993,804.65204,786.9231
786.9231,811.50183,815.12823,775.64105
788.93774,803.0403,813.1135,833.2601
786.52014,809.4872,812.71063,796.99634
778.86444,789.34064,803.8461,815.9341
784.90845,782.8938,808.68134,809.4872
789.34064,782.8938,811.9048,787.326
780.87915,790.14655,805.8608,752.674
768.7912,790.9524,805.4579,774.43225
779.2674,797.3993,813.91943,817.9487
784.5055,806.26373,816.337,815.12823
775.2381,799.81683,809.89014,793.7729
772.01465,794.17584,801.02563,757.50916
776.04395,804.65204,796.1905,775.2381
788.93774,811.50183,798.60803,812.71063
795.38464,816.337,797.3993,809.4872
802.6374,816.337,794.17584,789.7436
807.8755,815.12823,803.0403,769.19415
807.47253,818.3516,817.1429,795.78754
793.7729,808.2784,811.9048,828.8278
780.87915,799.81683,802.6374,824.3956
786.52014,800.2198,797.3993,803.8461
796.99634,798.20514,795.38464,770.0
789.7436,796.1905,794.9817,775.64105
777.25275,798.60803,797.3993,815.9341
789.34064,813.1135,814.7253,842.52747
792.96704,808.68134,805.8608,816.7399
777.6557,789.34064,787.72894,765.9707
768.7912,789.34064,789.34064,761.53845
779.2674,801.8315,794.57874,811.50183
773.6264,802.23444,791.3553,819.5604
770.80585,801.02563,790.54944,794.17584
776.8498,802.6374,791.75824,767.98535
780.87915,802.23444,794.9817,769.19415
795.78754,805.8608,803.8461,816.7399
804.2491,812.3077,805.05493,836.8865
796.1905,806.26373,800.6227,813.1135
788.93774,800.2198,795.78754,776.4469
790.54944,803.0403,793.7729,757.9121
791.3553,801.4286,792.5641,790.14655
789.7436,799.81683,791.3553,815.12823
795.38464,797.8022,794.57874,815.12823
799.011,792.1612,791.3553,790.9524
790.9524,791.75824,784.10254,759.5238
792.1612,799.81683,780.4762,793.7729
787.326,800.6227,780.4762,810.696
784.90845,799.81683,776.04395,783.2967
789.34064,796.99634,778.0586,761.53845
795.38464,801.4286,783.69965,788.1319
796.99634,803.44324,782.0879,823.9927
785.7143,802.23444,784.5055,824.3956
770.40295,791.75824,780.07324,819.5604
773.6264,800.2198,788.5348,800.6227
782.0879,805.4579,789.7436,763.95605
776.8498,790.54944,776.8498,780.07324
771.6117,794.17584,776.8498,819.5604
776.8498,799.81683,777.25275,811.50183
773.22345,795.78754,776.4469,786.1172
770.40295,788.5348,777.25275,748.24176
779.67035,790.9524,780.4762,765.56775
784.90845,797.3993,780.4762,811.50183
786.9231,802.23444,780.07324,811.9048
794.57874,803.44324,777.6557,790.14655
804.2491,810.293,782.8938,762.3443
814.7253,826.4103,797.8022,790.54944
793.36993,805.4579,778.86444,820.7692
805.05493,814.7253,790.14655,830.0366
792.5641,819.9634,790.14655,802.23444
787.326,815.12823,789.7436,763.95605
777.25275,799.81683,778.0586,751.06226
773.6264,803.0403,778.46155,805.05493
775.2381,810.293,785.7143,828.8278
778.0586,809.0842,790.9524,809.0842
773.6264,809.4872,788.93774,768.7912
770.40295,808.2784,788.1319,752.674
791.3553,803.8461,801.8315,827.619
786.9231,797.8022,798.20514,807.8755
783.2967,797.8022,797.3993,773.6264
787.326,811.9048,802.23444,809.4872
778.86444,797.3993,791.75824,744.21246
782.8938,804.65204,794.9817,786.9231
784.10254,802.6374,795.78754,819.9634
788.93774,795.38464,796.1905,802.23444
793.36993,792.96704,798.20514,769.59705
794.9817,795.38464,796.1905,755.09155
775.64105,796.99634,786.9231,790.14655
769.19415,800.6227,792.1612,824.7985
790.9524,811.50183,812.3077,822.7839
775.2381,799.81683,804.65204,785.7143
764.35895,789.34064,794.9817,749.85345
778.0586,799.011,809.4872,792.96704
774.83514,796.99634,817.1429,833.2601
772.4176,795.38464,812.3077,815.9341
772.8205,801.8315,809.4872,785.31134
758.315,798.20514,808.68134,756.30035
766.3736,799.011,813.91943,789.34064
776.8498,805.05493,813.5165,826.8132
774.43225,807.8755,808.68134,815.12823
788.93774,826.8132,828.4249,807.0696
794.17584,826.4103,833.663,781.28204
780.87915,798.20514,809.89014,775.2381
781.685,790.54944,806.26373,808.68134
784.10254,792.1612,811.0989,813.91943
782.0879,792.1612,805.4579,789.7436
776.04395,788.93774,796.99634,747.8388
772.8205,790.9524,799.81683,746.63007
767.1795,791.75824,800.6227,783.2967
763.1502,792.96704,796.1905,786.9231
763.5531,796.99634,795.38464,767.98535
772.8205,799.41394,798.20514,740.18317
770.80585,799.41394,796.5934,741.79486
763.95605,802.6374,799.011,788.1319
764.35895,802.6374,799.011,804.2491
792.1612,817.1429,821.5751,792.5641
774.43225,805.05493,807.8755,800.6227
779.2674,804.65204,807.8755,773.6264
775.2381,793.7729,805.4579,809.89014
784.90845,797.8022,808.68134,833.663
771.6117,792.96704,802.6374,779.2674
770.80585,796.5934,798.20514,755.89746
778.86444,801.8315,801.4286,801.8315
777.6557,796.5934,803.8461,815.9341
783.69965,799.011,802.23444,826.4103
771.6117,789.7436,802.6374,778.46155
778.86444,795.38464,799.41394,808.68134
782.49084,801.02563,813.5165,766.77655
785.31134,801.02563,814.3223,796.99634
774.83514,791.75824,802.6374,819.9634
766.3736,796.99634,801.02563,805.4579
771.2088,793.7729,801.02563,766.3736
772.4176,786.9231,796.99634,739.3773
770.80585,791.75824,800.6227,774.43225
780.07324,796.1905,801.8315,813.91943
778.0586,801.02563,799.011,807.8755
768.3883,796.5934,796.99634,783.2967
771.2088,796.1905,798.20514,760.32965
782.0879,795.78754,803.44324,792.1612
790.9524,790.54944,805.8608,833.2601
795.78754,792.5641,803.44324,821.1722
784.5055,798.20514,796.99634,794.57874
782.49084,800.6227,796.5934,774.0293
795.38464,799.011,799.011,789.34064
802.23444,795.38464,799.81683,827.2161
804.65204,800.6227,802.23444,828.022
795.78754,807.8755,799.81683,804.65204
775.2381,805.05493,794.57874,764.7619
768.3883,801.8315,792.96704,770.80585
776.04395,801.8315,798.60803,823.5897
786.1172,803.44324,805.05493,831.6484
779.2674,794.57874,800.2198,804.2491
776.4469,786.52014,792.96704,762.74725
784.10254,790.14655,789.7436,756.30035
779.2674,787.326,790.14655,805.8608
776.04395,785.7143,790.54944,830.0366
772.8205,788.93774,789.7436,803.0403
774.83514,794.9817,786.9231,763.5531
781.28204,799.81683,786.9231,758.315
784.5055,799.011,792.5641,800.2198
786.1172,792.96704,790.14655,815.12823
791.3553,801.02563,795.78754,803.8461
807.0696,811.9048,808.68134,783.2967
801.02563,796.99634,794.17584,748.24176
793.7729,784.5055,782.8938,774.0293
799.81683,787.326,790.14655,809.0842
793.36993,792.96704,788.1319,792.96704
783.69965,792.5641,784.10254,757.50916
790.54944,790.54944,782.8938,742.6007
798.60803,791.75824,784.10254,788.1319
795.78754,798.20514,785.31134,822.381
793.36993,799.011,780.07324,808.68134
796.1905,794.9817,780.07324,777.6557
797.3993,793.7729,789.7436,760.7326
793.7729,790.54944,790.14655,796.99634
787.72894,789.34064,790.54944,827.619
776.8498,788.5348,789.7436,812.3077
768.3883,784.10254,789.7436,776.04395
770.0,780.87915,792.1612,749.0476
786.1172,786.9231,804.65204,829.2308
784.5055,784.10254,797.8022,782.0879
770.40295,790.54944,799.011,821.1722
764.7619,799.011,794.9817,764.35895
766.77655,801.4286,796.5934,776.4469
775.2381,810.696,809.89014,837.6923
775.64105,802.6374,810.293,834.4689
769.19415,792.1612,798.60803,797.8022
765.9707,793.7729,801.02563,759.92676
770.80585,799.011,802.6374,760.32965
765.56775,795.38464,794.57874,797.8022
766.3736,794.9817,799.81683,811.50183
778.0586,798.60803,809.4872,792.1612
773.6264,800.6227,808.2784,817.9487
778.86444,800.6227,803.44324,767.98535
788.93774,802.23444,803.8461,775.2381
796.1905,805.05493,813.91943,823.9927
808.68134,823.9927,826.4103,850.58606
804.2491,816.7399,821.1722,827.619
779.2674,795.78754,810.696,774.0293
779.2674,800.6227,813.1135,763.1502
779.2674,796.1905,818.7546,809.0842
791.3553,788.5348,824.3956,833.2601
804.2491,801.8315,819.15753,811.50183
789.34064,795.38464,814.3223,736.1539
794.17584,798.60803,815.12823,791.75824
796.99634,800.2198,816.7399,821.978
792.96704,799.011,825.2015,793.7729
795.78754,804.65204,815.12823,755.89746
794.57874,797.8022,821.1722,812.3077
780.87915,799.41394,823.1868,768.7912
769.19415,795.78754,824.7985,798.60803
769.59705,792.5641,833.2601,838.49817
778.0586,791.75824,834.0659,829.2308
774.43225,794.57874,823.9927,796.99634
778.86444,797.8022,820.7692,768.7912
792.5641,803.44324,823.9927,799.41394
790.9524,801.8315,829.2308,837.6923
791.3553,800.6227,832.4542,829.6337
789.7436,804.65204,828.8278,798.20514
781.685,806.26373,823.5897,771.2088
781.28204,800.6227,822.381,801.4286
790.54944,799.011,823.9927,833.663
794.57874,803.44324,823.1868,821.1722
803.44324,810.293,826.8132,801.02563
787.72894,803.0403,819.9634,757.9121
769.59705,799.011,815.5311,769.59705
776.8498,805.05493,822.7839,821.978
784.10254,805.05493,826.4103,821.1722
779.67035,799.81683,826.0073,798.20514
768.7912,790.14655,813.91943,759.12085
768.3883,790.9524,809.4872,758.315
790.54944,802.23444,820.3663,821.1722
793.36993,799.011,821.5751,836.8865
777.25275,801.02563,821.1722,804.2491
778.46155,803.44324,820.7692,766.77655
779.67035,794.17584,814.3223,766.3736
784.5055,788.5348,815.12823,816.337
792.96704,794.17584,818.3516,833.663
794.57874,800.6227,821.5751,810.293
790.54944,805.05493,823.1868,762.74725
776.4469,799.81683,812.3077,747.8388
782.0879,799.41394,816.7399,796.99634
790.54944,809.4872,823.5897,819.9634
783.2967,810.293,817.5458,796.5934
778.86444,805.05493,808.2784,754.2857
778.0586,803.44324,805.8608,740.58606
785.31134,807.47253,812.71063,793.36993
784.5055,799.011,810.293,811.9048
776.04395,790.54944,806.26373,789.34064
780.87915,799.011,804.2491,759.5238
780.07324,810.293,803.0403,737.76556
783.69965,811.0989,801.4286,769.19415
791.75824,808.68134,799.81683,796.99634
785.7143,805.05493,799.81683,771.6117
786.52014,807.8755,799.011,787.326
791.3553,802.6374,799.41394,756.7033
799.81683,813.5165,807.8755,825.2015
792.96704,803.0403,798.60803,783.69965
804.65204,820.7692,815.12823,829.2308
794.57874,805.8608,811.50183,806.26373
788.1319,790.54944,804.2491,776.4469
786.1172,796.1905,799.41394,793.36993
775.64105,803.44324,800.2198,830.4396
768.7912,801.4286,800.6227,824.3956
774.0293,803.8461,794.57874,798.20514
775.2381,806.26373,792.1612,772.4176
773.22345,804.2491,795.38464,783.69965
772.8205,803.0403,795.78754,822.381
771.2088,804.65204,795.38464,816.337
765.56775,796.99634,790.54944,778.86444
757.1062,790.54944,792.1612,750.65936
759.12085,797.3993,799.81683,769.19415
766.77655,799.81683,801.8315,814.7253
767.5824,797.3993,802.23444,820.3663
757.9121,796.99634,800.6227,797.8022
769.19415,794.17584,794.57874,768.3883
776.04395,798.60803,799.41394,811.50183
788.5348,803.44324,807.8755,821.978
787.72894,810.696,807.8755,801.4286
759.92676,792.5641,794.9817,765.9707
786.52014,808.68134,805.4579,778.86444
790.54944,808.2784,806.26373,776.8498
792.96704,809.89014,805.05493,822.7839
791.75824,804.65204,805.4579,841.31866
788.93774,803.44324,801.4286,820.7692
780.87915,806.6667,795.78754,790.9524
780.07324,800.6227,790.54944,765.9707
782.8938,793.7729,790.14655,799.41394
785.7143,798.20514,799.81683,829.6337
790.54944,807.0696,803.8461,819.15753
794.57874,805.05493,802.23444,786.52014
792.1612,802.23444,803.44324,763.1502
787.72894,809.89014,811.0989,804.2491
778.86444,807.8755,811.50183,830.4396
770.40295,804.2491,803.0403,809.89014
767.5824,809.0842,796.1905,772.4176
763.1502,802.23444,785.7143,738.97437
770.40295,795.38464,785.7143,774.83514
772.8205,802.6374,798.20514,816.337
762.3443,805.8608,801.8315,804.2491
759.5238,798.20514,789.7436,770.80585
763.1502,791.75824,780.87915,734.1392
768.7912,793.7729,792.1612,763.1502
776.4469,810.293,806.6667,813.91943
801.8315,824.7985,819.5604,824.3956
792.5641,809.89014,801.02563,785.7143
772.4176,799.81683,782.8938,743.00366
772.8205,798.60803,789.34064,774.0293
784.5055,803.8461,805.05493,834.4689
789.7436,802.23444,805.05493,831.6484
786.1172,802.6374,799.81683,802.23444
781.685,804.65204,798.20514,771.6117
787.72894,798.60803,799.41394,784.10254
789.7436,794.9817,798.60803,824.7985
786.9231,798.20514,795.78754,823.9927
796.5934,803.8461,802.6374,809.89014
794.17584,796.1905,796.99634,770.40295
790.14655,792.1612,784.5055,763.5531
799.81683,797.8022,790.9524,813.91943
800.2198,800.2198,804.2491,823.5897
782.0879,796.1905,803.0403,789.7436
773.6264,791.75824,796.1905,744.61536
769.19415,791.75824,794.57874,738.97437
767.98535,793.7729,792.96704,781.28204
768.7912,789.34064,793.7729,792.96704
759.5238,783.2967,791.75824,776.4469
749.85345,784.90845,785.7143,737.76556
751.06226,791.3553,788.5348,720.4396
768.7912,800.6227,793.36993,767.98535
775.64105,801.8315,792.96704,796.99634
778.46155,803.8461,797.3993,796.1905
783.69965,800.6227,796.1905,767.98535
769.19415,782.0879,787.72894,740.18317
766.3736,781.685,788.5348,780.07324
784.5055,797.3993,801.02563,832.8571
785.7143,796.5934,799.011,800.2198
784.90845,790.54944,790.54944,770.40295
793.36993,793.7729,797.8022,803.0403
784.5055,798.60803,794.57874,831.2454
796.1905,805.8608,811.9048,838.49817
777.6557,803.0403,790.14655,823.1868
805.05493,802.6374,798.60803,764.7619
788.93774,802.23444,799.81683,788.1319
794.17584,801.02563,790.9524,793.7729
789.7436,793.7729,795.78754,815.9341
797.3993,792.96704,794.9817,811.0989
788.93774,799.81683,794.57874,786.9231
775.64105,797.3993,789.7436,748.24176
770.80585,796.5934,788.93774,763.5531
773.6264,799.41394,794.17584,800.2198
770.80585,797.8022,794.17584,805.05493
772.8205,800.2198,795.38464,785.7143
761.53845,796.5934,792.5641,737.3626
746.2271,794.57874,789.7436,743.8095
768.3883,803.0403,802.23444,803.0403
776.04395,798.60803,804.65204,808.68134
768.7912,794.17584,797.8022,781.28204
776.04395,796.99634,794.17584,746.2271
769.59705,796.5934,788.5348,752.674
775.2381,794.9817,788.93774,808.68134
787.72894,798.20514,794.9817,834.4689
790.9524,800.6227,800.2198,827.2161
793.7729,796.5934,794.9817,791.3553
799.011,796.99634,791.3553,784.10254
802.6374,799.011,797.8022,836.8865
820.7692,812.71063,816.337,868.315
809.0842,803.44324,810.696,838.0952
790.14655,785.31134,797.3993,787.326
788.93774,783.2967,800.6227,766.77655
788.93774,784.90845,800.6227,807.47253
793.36993,787.326,803.44324,837.6923
795.38464,790.14655,804.2491,810.696
788.5348,797.3993,798.20514,777.25275
783.69965,794.9817,798.20514,765.56775
785.31134,792.1612,803.8461,795.78754
790.54944,794.17584,799.011,823.9927
791.3553,804.65204,804.65204,828.8278
787.326,814.7253,816.7399,807.47253
772.4176,794.17584,799.41394,755.4945
772.01465,786.1172,789.34064,774.83514
781.685,796.99634,805.05493,813.1135
782.0879,803.0403,813.1135,805.05493
780.4762,794.17584,803.8461,768.7912
785.7143,791.3553,800.2198,738.5714
792.1612,799.011,802.6374,767.1795
800.6227,801.02563,802.23444,808.68134
801.4286,799.41394,798.20514,808.68134
801.4286,800.6227,798.20514,785.31134
803.44324,798.60803,804.2491,753.8828
801.4286,797.3993,807.0696,777.6557
795.78754,792.5641,805.05493,825.6044
789.34064,790.9524,809.4872,829.2308
779.2674,788.93774,811.0989,805.05493
772.4176,785.7143,804.65204,766.3736
777.6557,787.326,803.8461,774.83514
780.4762,790.54944,810.293,824.7985
781.28204,792.5641,812.71063,832.4542
781.28204,792.1612,807.0696,807.0696
778.46155,788.1319,799.81683,764.35895
783.2967,795.78754,805.8608,767.1795
791.75824,804.2491,812.3077,809.4872
784.90845,801.8315,805.8608,811.0989
771.2088,794.57874,802.6374,790.9524
773.6264,789.34064,809.0842,755.09155
780.4762,789.7436,809.89014,747.4359
778.46155,785.31134,802.6374,776.8498
773.22345,786.1172,802.6374,788.5348
771.2088,784.5055,800.6227,770.0
777.25275,786.9231,799.81683,734.94507
772.8205,790.9524,797.8022,726.08057
782.0879,795.38464,794.57874,771.2088
796.1905,804.2491,794.57874,808.68134
790.54944,801.4286,789.7436,801.8315
785.7143,788.93774,786.52014,765.56775
788.5348,783.2967,787.72894,746.63007
801.4286,791.3553,792.1612,792.96704
792.1612,795.38464,793.7729,824.3956
784.10254,786.9231,796.1905,808.2784
787.326,784.5055,799.81683,785.7143
784.10254,785.7143,794.9817,764.35895
788.5348,793.36993,794.17584,794.17584
785.7143,804.2491,799.41394,832.4542
779.67035,799.011,796.99634,817.5458
782.49084,794.57874,795.38464,786.1172
786.9231,793.36993,790.54944,755.09155
782.0879,788.93774,788.5348,777.6557
785.31134,794.17584,797.8022,816.337
800.6227,803.44324,810.293,821.978
785.31134,793.36993,803.0403,785.7143
769.19415,788.5348,788.1319,739.3773
784.5055,802.23444,793.36993,761.13556
786.9231,799.81683,791.3553,801.8315
782.0879,788.93774,786.52014,801.8315
786.52014,786.52014,790.54944,778.86444
784.5055,790.9524,793.36993,750.2564
786.1172,793.36993,796.1905,769.19415
785.7143,790.14655,794.17584,814.3223
791.3553,792.5641,795.38464,825.6044
814.3223,803.8461,816.7399,828.8278
805.8608,798.20514,809.89014,782.8938
782.0879,786.1172,790.54944,766.3736
783.69965,791.75824,792.5641,818.3516
784.5055,796.5934,792.1612,828.8278
778.46155,793.7729,793.36993,805.8608
774.43225,796.1905,789.34064,763.5531
788.5348,796.99634,789.7436,805.8608
781.685,801.8315,784.90845,757.9121
779.2674,795.78754,797.3993,820.7692
772.4176,794.9817,805.05493,807.47253
774.0293,796.5934,805.8608,773.22345
780.87915,803.8461,807.0696,760.32965
778.86444,794.17584,801.02563,795.78754
777.6557,788.1319,794.57874,812.3077
776.04395,793.36993,800.2198,802.6374
774.43225,793.36993,798.60803,760.7326
780.4762,802.23444,804.65204,803.8461
776.8498,796.5934,791.3553,725.2747
777.25275,803.8461,799.41394,767.1795
787.72894,803.8461,789.34064,755.4945
779.2674,795.78754,757.50916,728.9011
782.0879,793.36993,751.8681,765.16486
783.69965,796.99634,754.2857,812.3077
779.67035,793.36993,745.82416,806.26373
785.7143,799.81683,805.05493,786.1172
785.7143,795.38464,742.6007,783.69965
779.67035,796.99634,746.2271,761.9414
774.43225,795.38464,750.2564,788.1319
780.87915,798.20514,755.4945,827.619
789.7436,801.8315,760.7326,826.0073
778.86444,797.3993,761.53845,794.57874
763.1502,788.5348,759.92676,767.1795
763.5531,795.78754,763.1502,791.3553
765.16486,804.2491,767.1795,825.2015
780.07324,812.3077,774.43225,820.7692
773.22345,801.02563,766.77655,793.7729
761.9414,782.0879,757.50916,747.4359
769.59705,784.5055,762.3443,759.5238
784.10254,793.36993,768.3883,815.9341
784.90845,794.57874,770.0,821.1722
781.685,794.9817,770.80585,792.1612
785.31134,796.99634,772.4176,750.65936
788.5348,795.78754,770.80585,750.2564
790.54944,795.38464,773.22345,790.9524
790.9524,801.02563,774.83514,801.02563
793.36993,803.8461,776.4469,787.326
797.3993,798.60803,779.2674,757.1062
793.36993,792.1612,780.4762,762.74725
795.78754,799.41394,786.52014,812.3077
796.1905,802.6374,786.1172,823.1868
794.57874,791.75824,778.46155,806.26373
792.5641,789.7436,774.83514,782.0879
794.9817,791.3553,779.67035,773.6264
799.011,788.5348,784.5055,807.8755
797.3993,787.326,782.49084,834.87177
799.81683,788.5348,781.28204,821.5751
793.7729,794.57874,784.90845,786.9231
782.0879,794.17584,782.8938,762.3443
784.90845,799.011,788.1319,801.8315
793.7729,800.6227,794.57874,838.49817
803.0403,796.99634,803.0403,833.2601
803.44324,801.8315,809.4872,807.8755
791.75824,797.3993,792.96704,763.1502
785.7143,795.78754,786.1172,784.10254
773.6264,793.36993,790.54944,816.337
768.7912,788.1319,787.326,792.1612
780.07324,789.7436,785.31134,758.315
782.49084,793.36993,781.28204,732.1245
781.28204,799.41394,783.69965,762.74725
790.9524,805.8608,788.5348,806.26373
798.20514,801.8315,786.9231,804.2491
794.9817,791.75824,789.34064,782.0879
795.78754,788.93774,790.9524,752.27106
800.6227,783.2967,786.1172,770.40295
797.8022,784.5055,786.52014,816.337
801.02563,791.3553,786.9231,815.9341
805.05493,793.36993,784.90845,796.99634
799.41394,790.9524,784.10254,761.9414
801.4286,792.1612,786.9231,779.2674
801.02563,796.5934,795.78754,838.0952
791.75824,803.0403,799.41394,834.87177
786.52014,803.8461,795.78754,802.6374
771.2088,796.99634,792.96704,765.16486
766.3736,792.1612,793.7729,764.7619
781.685,794.9817,807.8755,819.5604
781.685,790.9524,806.6667,830.0366
788.5348,787.326,794.57874,801.02563
793.36993,792.1612,795.38464,766.3736
785.7143,790.14655,799.011,762.3443
781.685,791.3553,799.011,803.44324
780.07324,794.57874,800.6227,812.71063
784.90845,795.38464,799.41394,792.1612
790.9524,795.78754,792.1612,759.12085
791.75824,796.1905,792.5641,749.0476
790.14655,801.8315,801.8315,788.1319
789.7436,801.4286,811.0989,819.15753
786.1172,792.5641,809.4872,804.2491
777.6557,786.52014,797.3993,755.4945
783.2967,790.54944,795.78754,736.9597
782.8938,784.10254,799.41394,778.0586
783.2967,784.90845,802.23444,812.3077
789.34064,791.3553,799.41394,805.4579
792.96704,793.7729,793.36993,775.2381
791.75824,791.3553,787.326,754.2857
791.3553,791.75824,792.1612,794.9817
802.23444,791.3553,798.60803,838.9011
807.0696,790.54944,800.6227,834.87177
811.9048,804.65204,810.696,825.6044
806.6667,800.6227,806.6667,793.7729
802.23444,789.7436,794.57874,798.60803
807.47253,799.011,794.57874,834.0659
802.23444,804.2491,798.60803,826.8132
787.326,801.8315,799.41394,795.78754
782.0879,799.41394,799.011,758.315
786.52014,797.8022,799.81683,776.04395
794.9817,796.99634,796.99634,813.1135
790.54944,801.4286,793.36993,802.23444
781.685,805.4579,792.96704,776.04395
794.17584,803.8461,796.99634,744.61536
796.5934,792.96704,796.1905,750.65936
788.93774,796.5934,794.57874,792.5641
796.5934,803.44324,798.20514,807.0696
797.8022,795.78754,798.60803,792.96704
789.34064,798.60803,792.1612,755.4945
796.1905,801.8315,789.7436,760.7326
801.8315,802.23444,794.9817,809.4872
795.78754,804.65204,797.3993,813.1135
788.5348,802.23444,797.3993,792.5641
780.87915,798.60803,792.1612,755.09155
787.326,812.3077,803.8461,826.8132
788.1319,801.4286,805.8608,840.5128
806.26373,797.8022,794.17584,779.67035
808.68134,799.41394,788.93774,774.0293
796.5934,790.14655,798.60803,807.8755
782.0879,801.02563,790.9524,753.0769
801.8315,802.6374,788.5348,822.7839
795.38464,803.8461,794.57874,854.61536
796.99634,797.8022,800.2198,844.5421
796.99634,798.20514,796.5934,807.8755
790.9524,797.8022,793.36993,783.2967
792.1612,807.47253,803.44324,822.7839
819.5604,812.3077,806.6667,833.663
805.8608,795.38464,795.78754,783.69965
814.7253,823.1868,814.3223,856.63007
806.26373,796.1905,792.96704,759.12085
808.2784,798.60803,792.96704,796.99634
802.23444,796.5934,791.3553,821.5751
803.0403,793.7729,789.7436,801.8315
794.57874,790.54944,788.1319,765.56775
779.2674,783.69965,783.2967,728.0952
785.31134,790.9524,784.90845,751.4652
784.90845,797.8022,789.7436,791.75824
777.25275,801.4286,794.9817,789.7436
780.07324,807.0696,800.2198,769.59705
775.2381,801.02563,793.7729,744.61536
774.43225,791.75824,790.54944,774.0293
777.6557,794.9817,799.41394,818.3516
775.2381,796.1905,800.2198,823.5897
776.4469,791.75824,794.57874,805.4579
782.49084,793.7729,789.34064,773.22345
790.14655,790.54944,788.1319,795.38464
794.17584,789.34064,794.57874,841.31866
799.011,795.78754,795.78754,838.0952
807.47253,796.5934,792.96704,815.12823
822.381,801.4286,794.17584,784.90845
827.619,801.8315,792.96704,786.9231
818.3516,794.9817,795.38464,830.4396
815.5311,797.3993,798.20514,836.4835
817.1429,805.05493,803.0403,820.7692
810.293,802.6374,803.0403,779.67035
800.6227,790.14655,792.1612,760.32965
797.8022,789.34064,790.54944,806.6667
802.6374,797.3993,794.57874,813.1135
785.31134,790.54944,787.326,758.315
777.6557,789.34064,788.5348,732.52747
765.16486,793.36993,786.9231,772.01465
773.6264,797.8022,787.326,790.9524
779.2674,799.41394,789.7436,769.59705
791.3553,795.38464,790.9524,793.7729
768.7912,793.7729,782.49084,729.304
774.43225,787.326,781.685,720.4396
786.52014,789.34064,792.1612,785.7143
789.34064,790.14655,797.8022,813.5165
796.5934,791.75824,796.99634,807.47253
804.2491,793.7729,796.1905,797.3993
805.4579,792.96704,794.57874,782.0879
806.26373,793.7729,798.20514,818.3516
809.4872,799.41394,807.47253,862.27106
803.44324,803.8461,807.8755,857.4359
798.20514,792.96704,796.1905,782.8938
803.44324,794.57874,801.8315,813.5165
808.68134,793.36993,803.0403,847.76556
810.293,803.8461,797.3993,795.78754
797.8022,796.99634,800.2198,822.7839
805.8608,795.78754,800.6227,829.2308
807.8755,796.5934,792.96704,764.7619
790.54944,786.9231,796.1905,785.7143
789.34064,794.57874,803.44324,824.7985
786.1172,794.17584,802.6374,821.5751
777.6557,785.31134,797.8022,786.1172
774.83514,786.9231,794.9817,745.82416
766.77655,784.90845,792.1612,753.47986
766.77655,793.7729,799.011,801.4286
777.25275,799.41394,805.4579,807.47253
770.80585,785.31134,800.6227,774.43225
770.40295,784.90845,799.011,727.6923
779.67035,792.1612,799.81683,733.3333
784.90845,792.1612,799.81683,778.0586
788.5348,790.14655,794.17584,775.64105
795.38464,788.93774,790.54944,761.9414
804.65204,794.17584,793.7729,745.82416
811.9048,797.8022,790.14655,753.8828
819.15753,803.0403,793.7729,815.5311
825.6044,805.05493,798.20514,840.9158
822.381,798.20514,795.78754,821.5751
813.5165,787.326,791.3553,786.9231
816.7399,786.1172,792.96704,778.0586
824.3956,790.14655,796.1905,820.3663
819.15753,792.5641,792.96704,824.7985
807.8755,796.1905,792.1612,804.2491
806.6667,795.38464,793.36993,779.67035
796.5934,793.7729,795.78754,766.77655
787.72894,801.4286,800.2198,805.05493
797.3993,799.011,799.81683,830.84247
793.36993,795.78754,796.99634,813.91943
782.8938,795.38464,795.38464,784.90845
776.04395,792.96704,793.7729,765.9707
782.8938,791.3553,796.99634,804.2491
781.28204,792.1612,802.23444,834.4689
778.0586,791.3553,800.6227,810.293
780.87915,793.36993,797.8022,775.64105
787.326,798.60803,799.41394,740.18317
782.0879,795.38464,799.41394,760.7326
777.25275,793.36993,800.2198,786.52014
778.46155,793.36993,797.3993,768.7912
786.52014,792.5641,796.1905,757.50916
796.99634,794.57874,794.17584,734.1392
796.1905,798.60803,794.9817,756.30035
799.81683,805.4579,796.99634,815.9341
805.8608,802.23444,794.17584,826.4103
804.65204,799.81683,801.02563,807.0696
796.5934,797.3993,799.81683,778.0586
802.6374,797.8022,798.60803,801.02563
812.71063,798.60803,807.0696,851.39197
812.71063,797.3993,802.23444,848.97437
813.91943,803.8461,795.38464,817.5458
801.02563,810.696,795.38464,781.685
797.8022,809.0842,795.78754,792.96704
796.1905,811.50183,801.4286,836.8865
785.31134,809.0842,804.2491,832.4542
778.86444,800.6227,797.8022,808.68134
766.77655,799.41394,795.78754,774.43225
771.2088,794.17584,796.5934,766.3736
783.69965,792.96704,796.99634,815.5311
780.07324,801.8315,797.8022,834.87177
783.2967,805.05493,802.6374,817.5458
784.5055,803.8461,797.8022,776.4469
780.4762,805.4579,788.1319,755.09155
799.41394,807.47253,794.9817,796.99634
804.2491,805.8608,799.81683,810.293
793.36993,803.8461,797.3993,782.49084
790.54944,802.6374,796.99634,742.1978
793.7729,796.99634,791.75824,721.6484
797.3993,791.75824,789.7436,759.92676
807.0696,799.81683,799.41394,801.4286
809.89014,808.68134,799.011,792.5641
803.0403,801.02563,788.1319,753.47986
813.1135,803.0403,792.96704,798.60803
801.8315,806.6667,796.5934,837.6923
809.4872,805.05493,797.3993,842.52747
809.89014,801.8315,797.8022,809.0842
816.337,797.8022,786.9231,751.4652
801.8315,800.2198,798.60803,773.22345
797.3993,800.2198,799.81683,795.38464
792.1612,801.8315,801.8315,830.0366
793.36993,802.6374,801.4286,824.3956
787.72894,791.3553,795.78754,793.36993
773.22345,783.2967,786.1172,753.8828
770.40295,788.1319,788.93774,775.2381
774.0293,795.78754,800.2198,827.619
784.90845,796.5934,801.4286,819.5604
786.52014,794.57874,798.20514,781.685
786.9231,794.17584,795.38464,751.8681
777.25275,789.7436,794.9817,767.5824
774.0293,790.54944,796.5934,800.6227
786.52014,795.78754,794.17584,793.7729
794.57874,797.8022,793.36993,774.43225
806.26373,796.5934,794.17584,743.00366
815.12823,798.60803,790.14655,743.00366
813.1135,800.2198,788.93774,799.41394
809.89014,802.23444,789.34064,786.9231
822.7839,799.41394,788.93774,776.4469
816.337,790.9524,787.72894,743.8095
811.50183,786.52014,790.54944,747.8388
805.4579,789.34064,794.9817,790.9524
801.8315,782.0879,794.9817,799.81683
809.0842,779.2674,793.36993,782.8938
807.0696,775.64105,786.1172,745.0183
805.4579,775.64105,790.9524,739.7802
827.619,791.3553,811.50183,803.8461
825.6044,779.2674,803.44324,814.7253
796.99634,769.59705,788.93774,784.90845
781.28204,776.8498,790.9524,759.5238
778.46155,772.8205,793.7729,749.85345
780.4762,768.7912,792.1612,807.8755
777.25275,774.43225,796.1905,799.81683
778.46155,767.5824,791.3553,784.5055
774.43225,773.22345,796.99634,772.4176
768.3883,770.40295,796.5934,747.4359
769.19415,770.0,798.60803,787.326
777.6557,782.8938,809.4872,828.4249
757.1062,762.74725,791.75824,776.8498
769.59705,766.77655,789.34064,748.24176
785.31134,771.6117,792.5641,785.7143
770.0,776.4469,803.44324,814.3223
792.1612,774.43225,799.011,828.022
795.38464,773.22345,799.41394,819.9634
793.7729,767.98535,792.1612,789.34064
798.60803,772.01465,790.54944,765.56775
810.696,779.2674,793.7729,795.78754
818.3516,779.2674,796.1905,835.6777
810.696,775.2381,796.1905,835.2747
796.99634,773.22345,793.36993,817.9487
786.52014,767.5824,783.69965,787.326
788.5348,760.7326,776.8498,797.3993
780.87915,761.53845,786.9231,845.7509
776.04395,768.7912,792.5641,843.73627
777.6557,772.8205,788.93774,814.3223
765.9707,768.3883,780.87915,782.0879
760.7326,768.3883,780.87915,782.49084
761.9414,767.5824,787.326,820.7692
764.7619,768.7912,790.14655,823.9927
759.5238,777.25275,791.3553,801.02563
751.4652,778.46155,785.7143,758.315
756.7033,772.01465,779.2674,748.6447
759.12085,767.5824,778.46155,790.14655
763.5531,770.0,783.69965,805.8608
769.19415,776.4469,788.1319,791.75824
776.4469,776.4469,785.31134,762.74725
787.72894,778.46155,781.685,755.89746
790.9524,777.6557,787.326,801.4286
792.96704,780.07324,797.8022,823.1868
795.38464,777.6557,797.3993,801.8315
798.20514,775.2381,792.1612,779.2674
798.60803,785.7143,791.75824,776.04395
799.41394,788.93774,796.5934,824.7985
805.8608,784.5055,797.8022,857.4359
811.50183,777.6557,795.78754,841.7216
801.02563,773.22345,794.17584,809.4872
797.8022,777.6557,793.7729,794.17584
794.57874,783.2967,788.5348,826.4103
788.5348,788.93774,794.57874,863.47986
785.31134,790.14655,805.05493,861.06226
775.64105,785.31134,798.60803,822.381
765.56775,783.69965,792.1612,791.75824
765.9707,785.31134,794.17584,815.9341
771.2088,788.1319,796.1905,847.3626
761.9414,786.52014,794.9817,839.304
763.5531,782.8938,789.7436,796.99634
766.3736,782.8938,788.1319,751.4652
771.2088,788.93774,795.38464,768.3883
775.64105,788.1319,802.6374,796.1905
764.35895,782.8938,802.23444,784.10254
754.2857,778.86444,799.81683,751.06226
743.00366,770.80585,793.36993,711.1722
747.03296,772.8205,794.9817,743.4066
762.3443,788.1319,807.47253,806.6667
766.77655,791.75824,808.2784,813.91943
767.1795,788.5348,803.8461,799.011
774.43225,792.96704,803.8461,777.6557
782.49084,792.96704,803.0403,807.0696
784.10254,793.36993,807.0696,871.13556
804.65204,805.4579,823.5897,890.07324
804.65204,801.02563,813.91943,862.674
786.52014,785.31134,797.8022,812.3077
783.2967,780.87915,791.3553,803.0403
783.2967,788.1319,793.36993,843.73627
794.9817,795.78754,803.8461,859.45056
803.0403,799.81683,803.0403,838.49817
805.05493,804.65204,803.44324,798.20514
808.68134,803.44324,806.26373,790.54944
796.99634,792.96704,809.0842,836.08057
787.72894,793.36993,812.3077,844.1392
790.54944,792.1612,811.50183,816.337
787.326,789.7436,811.50183,785.31134
783.69965,788.5348,811.0989,774.43225
782.49084,789.34064,808.68134,811.50183
787.72894,795.78754,807.8755,828.022
790.14655,800.2198,806.26373,811.9048
782.0879,796.1905,803.44324,777.25275
774.0293,788.1319,803.44324,742.1978
772.8205,790.14655,804.65204,772.8205
775.64105,800.2198,804.65204,805.05493
780.87915,799.81683,802.23444,802.6374
788.93774,799.41394,807.8755,788.5348
784.5055,800.2198,813.5165,767.98535
780.87915,787.326,812.71063,835.2747
780.4762,790.9524,811.0989,801.02563
778.0586,790.9524,809.0842,822.7839
776.8498,796.5934,806.6667,796.99634
778.86444,793.7729,809.4872,772.4176
781.28204,785.31134,810.293,793.36993
781.28204,791.3553,812.71063,826.0073
774.0293,796.99634,811.9048,815.12823
776.8498,797.3993,805.8608,788.1319
779.67035,804.2491,803.44324,755.89746
786.52014,814.7253,811.50183,773.6264
792.96704,809.89014,809.0842,811.0989
781.28204,796.1905,801.02563,800.2198
776.4469,797.3993,803.44324,777.6557
789.7436,802.23444,801.8315,743.8095
795.78754,795.78754,796.1905,735.34796
799.41394,796.5934,796.1905,776.04395
797.3993,806.6667,800.6227,793.7729
782.8938,807.47253,804.65204,777.6557
772.8205,803.0403,806.26373,740.989
775.64105,801.02563,810.293,745.0183
776.8498,803.44324,821.1722,794.57874
782.8938,814.3223,842.1245,815.9341
776.4469,800.6227,837.28937,782.8938
775.2381,785.31134,820.7692,729.304
782.0879,792.1612,823.9927,725.6777
786.52014,797.8022,833.2601,776.4469
800.2198,802.23444,834.87177,802.6374
814.3223,811.0989,836.08057,787.72894
817.9487,810.293,848.1685,760.32965
813.91943,798.60803,851.79486,760.32965
806.6667,795.78754,848.97437,807.0696
803.44324,800.2198,851.39197,826.8132
807.47253,805.05493,855.42126,813.91943
802.23444,799.41394,853.4066,783.69965
792.5641,788.5348,842.9304,753.0769
789.34064,787.326,844.5421,795.38464
789.7436,787.326,857.4359,835.2747
787.72894,786.9231,862.674,821.978
789.34064,787.72894,858.24176,794.57874
792.5641,791.3553,851.39197,760.32965
797.3993,791.3553,857.03296,778.86444
798.60803,801.4286,869.5238,809.0842
792.1612,805.4579,871.9414,797.8022
797.3993,804.65204,875.16486,769.19415
790.14655,805.8608,886.04395,747.4359
762.74725,799.011,888.0586,777.6557
756.7033,793.36993,889.67035,806.6667
761.53845,787.326,895.7143,804.2491
765.56775,785.7143,894.90845,784.5055
768.7912,784.90845,890.4762,755.09155
776.8498,788.93774,896.9231,779.2674
790.9524,794.57874,909.011,829.2308
800.6227,796.1905,914.65204,843.3333
806.6667,796.5934,914.2491,828.8278
810.696,799.011,910.2198,807.47253
815.9341,806.6667,909.41394,820.7692
819.5604,805.05493,909.011,864.2857
820.7692,802.23444,901.75824,867.50916
817.1429,797.3993,893.69965,839.707
810.293,794.17584,883.22345,795.78754
803.44324,792.5641,874.7619,786.52014
803.8461,794.57874,882.8205,837.6923
804.65204,797.3993,889.2674,848.1685
796.99634,790.14655,882.8205,807.0696
781.685,787.326,875.56775,758.315
780.4762,790.54944,869.12085,748.6447
782.49084,793.36993,874.7619,790.9524
778.86444,796.5934,875.16486,804.65204
775.2381,792.96704,869.5238,785.7143
771.2088,790.9524,868.315,752.27106
771.6117,798.20514,871.13556,748.6447
779.2674,799.011,875.16486,800.6227
776.04395,788.5348,868.71796,818.3516
770.40295,790.14655,862.674,816.337
767.1795,790.9524,854.21246,785.31134
771.6117,795.78754,852.1978,760.32965
784.5055,807.47253,856.63007,813.91943
794.9817,809.4872,857.4359,846.55676
803.44324,803.44324,859.45056,840.10986
802.23444,798.20514,863.8828,811.0989
802.6374,790.9524,868.315,781.28204
797.8022,784.10254,873.5531,811.9048
801.8315,787.72894,882.01465,845.7509
812.3077,790.14655,885.64105,837.6923
796.1905,789.7436,881.6117,803.8461
787.326,796.99634,875.16486,774.0293
784.10254,800.2198,875.56775,795.38464
779.67035,796.5934,878.3883,825.6044
775.64105,792.1612,875.16486,820.7692
768.3883,792.5641,880.40295,796.99634
783.2967,799.41394,880.40295,808.2784
798.20514,806.6667,886.4469,851.79486
806.6667,813.5165,886.8498,852.6007
808.68134,811.9048,882.4176,834.0659
803.0403,800.2198,880.0,791.3553
804.2491,796.99634,884.83514,794.57874
811.0989,802.23444,888.46155,837.6923
772.01465,795.78754,882.4176,776.8498
806.26373,799.41394,888.86444,844.5421
790.54944,795.78754,890.87915,823.5897
779.2674,794.17584,885.64105,782.8938
782.8938,790.14655,881.6117,783.69965
787.72894,789.7436,883.6264,819.5604
803.0403,801.8315,884.83514,817.9487
815.9341,805.8608,883.22345,805.4579
814.3223,798.60803,882.8205,778.46155
820.3663,792.5641,880.0,774.83514
828.8278,798.60803,879.59705,819.15753
826.4103,799.41394,880.80585,836.8865
813.1135,791.3553,880.40295,820.7692
806.6667,793.7729,880.40295,788.5348
794.9817,796.1905,878.3883,765.9707
785.31134,792.1612,875.56775,796.5934
782.49084,792.1612,881.6117,813.5165
776.4469,787.72894,888.46155,791.3553
771.6117,784.90845,886.4469,759.5238
772.01465,792.5641,886.04395,740.58606
793.36993,803.8461,896.9231,781.685
805.05493,801.4286,899.7436,811.50183
796.5934,787.326,887.6557,796.5934
794.17584,787.326,884.83514,766.77655
792.5641,791.75824,885.2381,746.63007
787.326,786.52014,883.6264,786.1172
804.2491,800.2198,873.5531,792.1612
798.60803,800.6227,867.50916,763.5531
811.50183,807.8755,871.9414,795.38464
818.7546,812.3077,883.6264,849.3773
822.7839,810.696,885.2381,850.58606
821.978,801.02563,875.56775,809.89014
811.0989,795.78754,868.71796,782.0879
813.1135,803.44324,870.7326,809.4872
811.0989,801.02563,877.98535,817.5458
811.50183,807.0696,872.3443,848.1685
798.20514,792.1612,880.40295,821.1722
801.4286,801.4286,870.7326,847.3626
790.14655,792.96704,869.92676,786.1172
796.1905,796.1905,871.53845,822.381
780.4762,792.1612,867.1062,796.5934
774.43225,789.7436,867.1062,839.304
780.4762,803.44324,871.13556,842.1245
783.2967,807.8755,869.12085,812.71063
763.95605,795.38464,859.0476,768.3883
769.59705,790.54944,853.8095,766.3736
787.326,793.7729,863.8828,815.5311
790.14655,796.5934,872.74725,826.0073
780.4762,790.14655,867.1062,792.1612
769.59705,789.7436,862.27106,754.68866
774.43225,793.36993,862.27106,747.8388
788.5348,796.5934,865.4945,794.17584
790.9524,798.60803,865.89746,818.3516
788.1319,801.02563,861.4652,804.65204
803.44324,810.293,857.03296,778.0586
805.05493,801.8315,848.1685,755.09155
807.47253,800.6227,843.3333,795.38464
823.1868,805.05493,850.18317,828.4249
828.022,796.5934,856.63007,823.9927
827.619,798.20514,856.63007,805.05493
831.2454,810.293,848.1685,778.0586
837.28937,812.71063,847.76556,811.50183
830.0366,807.47253,861.4652,826.8132
821.5751,807.47253,854.61536,802.6374
809.89014,804.2491,845.7509,778.0586
835.6777,810.696,859.45056,848.1685
800.6227,801.4286,844.1392,795.78754
801.4286,808.68134,852.6007,830.0366
798.20514,811.0989,861.06226,824.7985
790.14655,803.44324,862.27106,793.36993
785.31134,797.3993,857.8388,757.1062
776.8498,797.8022,857.8388,770.40295
778.86444,801.8315,863.8828,798.20514
782.49084,800.6227,865.4945,792.5641
783.69965,800.6227,865.89746,767.1795
788.93774,801.4286,864.2857,734.1392
788.93774,795.78754,865.4945,763.1502
794.9817,793.36993,875.56775,815.9341
794.17584,795.38464,878.7912,815.12823
786.1172,801.4286,869.92676,789.7436
791.3553,802.6374,861.06226,755.09155
801.4286,801.02563,866.30035,778.46155
811.0989,806.26373,872.74725,832.8571
819.9634,806.26373,869.12085,832.4542
812.71063,798.20514,860.2564,805.4579
801.4286,794.9817,856.2271,765.16486
808.2784,802.6374,865.89746,823.1868
811.0989,798.20514,869.92676,825.6044
805.4579,807.0696,856.63007,794.9817
790.14655,803.0403,850.58606,761.13556
806.6667,797.3993,860.65936,773.22345
789.34064,801.02563,851.39197,761.53845
793.36993,801.4286,853.4066,803.8461
792.5641,799.41394,851.79486,813.91943
790.9524,791.3553,848.5714,796.5934
796.5934,790.14655,842.9304,768.7912
790.14655,790.9524,832.4542,752.27106
790.9524,796.5934,834.4689,789.7436
805.05493,805.4579,842.9304,817.9487
795.38464,803.0403,844.5421,802.6374
787.72894,798.60803,843.73627,766.3736
790.54944,801.02563,840.5128,745.42126
792.5641,804.65204,839.304,780.87915
796.5934,803.0403,836.4835,808.68134
802.6374,806.6667,836.08057,803.44324
794.17584,800.2198,836.08057,779.2674
795.38464,793.36993,834.0659,754.68866
809.4872,797.8022,833.663,792.96704
811.0989,798.60803,829.6337,821.978
808.2784,799.81683,825.2015,815.12823
807.47253,805.8608,830.0366,800.2198
797.3993,796.5934,833.2601,767.5824
794.57874,794.57874,834.4689,788.5348
796.1905,802.23444,835.2747,822.7839
787.326,794.9817,833.2601,819.5604
784.5055,794.9817,831.2454,802.23444
789.7436,811.0989,840.9158,780.4762
783.69965,798.60803,836.08057,793.36993
774.83514,790.14655,823.9927,811.0989
780.07324,784.10254,827.619,818.7546
775.64105,790.9524,819.15753,783.69965
780.07324,790.14655,816.337,745.42126
783.2967,788.1319,820.7692,809.4872
783.2967,790.14655,813.5165,814.3223
786.9231,795.78754,808.2784,791.3553
803.0403,800.6227,821.5751,780.07324
793.36993,799.011,810.293,765.16486
803.44324,796.99634,829.6337,828.4249
792.1612,791.75824,817.9487,823.5897
794.17584,790.14655,817.1429,801.4286
781.28204,789.34064,817.9487,757.50916
803.44324,790.14655,816.7399,761.13556
799.81683,788.5348,820.7692,774.43225
811.50183,793.36993,815.12823,806.26373
811.50183,797.8022,820.3663,827.2161
807.8755,800.6227,822.7839,805.4579
810.696,795.78754,825.2015,774.0293
809.89014,794.57874,829.2308,769.19415
799.41394,802.23444,833.663,817.5458
803.44324,800.6227,838.49817,832.4542
797.8022,798.60803,835.6777,808.2784
786.1172,798.60803,830.4396,776.4469
784.5055,798.20514,831.2454,753.47986
788.5348,804.2491,834.0659,790.14655
784.5055,807.0696,830.0366,816.7399
783.2967,811.9048,831.2454,803.44324
789.34064,815.5311,834.4689,775.64105
785.31134,801.02563,826.4103,748.24176
789.7436,793.7729,825.6044,776.8498
792.5641,801.4286,830.84247,807.8755
796.99634,807.0696,832.4542,804.65204
794.9817,792.1612,828.022,743.4066
801.02563,800.6227,831.6484,775.2381
800.6227,794.9817,833.663,781.28204
809.89014,807.0696,833.663,818.3516
811.50183,807.47253,830.84247,796.1905
809.0842,802.23444,837.6923,823.5897
808.68134,801.02563,831.6484,768.7912
800.6227,798.60803,832.4542,791.75824
807.8755,801.4286,831.6484,832.4542
815.12823,807.8755,829.6337,828.022
815.12823,814.3223,826.4103,802.6374
805.8608,807.8755,825.2015,768.3883
794.57874,794.17584,821.5751,770.0
782.0879,796.5934,821.5751,814.7253
783.2967,799.41394,823.5897,823.1868
786.1172,792.96704,824.3956,803.44324
781.685,793.7729,820.3663,765.56775
789.34064,797.8022,819.15753,761.53845
798.20514,798.60803,823.5897,812.71063
788.1319,794.9817,819.9634,817.9487
779.67035,789.7436,813.1135,795.78754
780.07324,790.14655,806.26373,764.7619
784.5055,797.3993,805.4579,764.35895
797.8022,804.2491,807.8755,813.91943
793.7729,794.9817,807.47253,825.2015
784.90845,793.36993,808.2784,801.8315
803.44324,806.6667,814.7253,784.10254
807.8755,810.293,814.3223,779.67035
792.96704,801.8315,805.8608,807.8755
796.5934,797.8022,806.6667,828.022
799.41394,796.5934,809.4872,814.7253
799.011,797.3993,809.4872,778.46155
806.6667,801.8315,811.9048,759.5238
809.0842,810.293,820.3663,805.4579
795.38464,807.47253,817.9487,826.4103
790.9524,799.41394,813.91943,805.8608
791.3553,798.60803,819.15753,784.5055
779.2674,803.8461,819.15753,775.2381
790.14655,813.1135,826.4103,812.71063
796.5934,808.68134,828.8278,833.2601
786.1172,794.9817,815.9341,815.9341
792.96704,797.8022,807.47253,788.5348
796.5934,803.0403,807.0696,757.9121
786.52014,799.41394,813.5165,791.75824
781.28204,794.17584,822.7839,834.4689
786.52014,795.78754,829.2308,833.2601
785.7143,801.4286,826.0073,810.293
782.49084,807.0696,819.9634,772.01465
782.8938,803.44324,817.1429,789.34064
787.72894,799.011,823.1868,832.4542
792.1612,799.81683,826.0073,831.2454
799.011,803.44324,823.1868,812.3077
800.6227,801.02563,819.5604,773.6264
811.9048,808.68134,831.6484,798.20514
818.7546,813.1135,841.7216,848.97437
809.89014,803.44324,832.0513,837.28937
806.26373,796.99634,821.978,804.65204
803.0403,797.8022,816.337,769.59705
811.50183,805.4579,825.2015,828.8278
801.8315,802.23444,817.5458,782.49084
818.3516,807.0696,825.2015,830.4396
801.8315,801.4286,819.9634,786.1172
807.0696,808.2784,824.3956,816.7399
796.1905,792.5641,815.12823,767.5824
793.7729,790.54944,818.3516,806.26373
796.1905,795.38464,821.5751,822.381
782.8938,796.1905,815.5311,799.011
773.6264,795.38464,806.26373,761.13556
780.87915,800.2198,804.65204,753.8828
782.49084,794.57874,809.4872,797.8022
782.8938,794.17584,807.8755,816.7399
787.326,803.44324,802.6374,803.44324
785.31134,802.23444,800.6227,771.6117
787.72894,794.9817,798.60803,749.0476
794.9817,793.36993,800.2198,791.75824
796.5934,794.9817,803.44324,821.978
800.2198,796.99634,801.02563,806.6667
798.60803,797.8022,796.5934,781.28204
799.41394,798.20514,791.75824,759.92676
799.81683,805.8608,792.96704,795.38464
797.3993,803.44324,791.75824,826.0073
798.60803,800.2198,790.54944,814.3223
797.8022,807.0696,794.17584,795.38464
798.20514,811.9048,797.3993,775.2381
807.0696,817.1429,800.2198,807.47253
808.2784,811.0989,801.02563,842.52747
794.9817,800.6227,797.3993,829.2308
788.1319,795.78754,797.3993,799.011
800.6227,794.57874,796.99634,772.01465
804.2491,793.7729,795.38464,785.31134
790.9524,790.14655,799.81683,813.1135
785.31134,786.9231,801.4286,814.7253
786.1172,786.52014,801.4286,801.4286
768.7912,787.72894,786.52014,765.56775
775.2381,789.7436,792.96704,813.5165
777.25275,791.3553,796.99634,826.0073
772.01465,788.93774,793.36993,760.7326
788.1319,790.9524,794.57874,803.44324
796.5934,792.5641,790.14655,760.7326
806.26373,803.44324,803.0403,777.6557
806.6667,807.8755,807.47253,823.5897
793.36993,799.41394,791.75824,811.0989
795.78754,798.60803,788.1319,789.7436
791.3553,796.99634,784.10254,760.32965
787.72894,796.99634,780.4762,755.4945
793.7729,801.02563,789.7436,809.4872
794.17584,798.20514,792.96704,834.0659
790.9524,800.2198,790.14655,808.2784
789.34064,801.8315,784.90845,767.98535
784.90845,795.78754,782.49084,759.92676
790.14655,795.38464,787.326,802.6374
801.4286,803.44324,795.78754,831.2454
801.4286,806.26373,797.3993,819.5604
799.011,803.0403,794.9817,784.10254
799.41394,798.60803,792.5641,770.80585
796.1905,794.17584,798.20514,813.5165
796.1905,794.57874,798.60803,831.6484
793.7729,797.8022,792.5641,817.5458
788.1319,799.41394,799.81683,788.1319
782.0879,802.23444,795.78754,753.47986
780.07324,808.2784,787.326,780.07324
785.7143,806.6667,793.7729,819.9634
790.14655,806.6667,801.02563,818.7546
781.685,786.9231,793.7729,753.8828
790.14655,798.20514,794.57874,783.69965
783.69965,799.41394,800.2198,788.1319
799.81683,803.8461,801.8315,825.2015
794.57874,797.3993,797.3993,815.5311
788.93774,794.57874,792.1612,788.5348
794.57874,790.14655,789.7436,766.77655
805.8608,794.57874,792.96704,787.72894
812.3077,800.2198,795.78754,827.2161
794.9817,797.8022,796.99634,822.7839
796.99634,805.05493,798.20514,792.1612
826.0073,824.3956,807.0696,782.0879
821.1722,817.5458,804.2491,796.5934
811.0989,797.3993,797.8022,826.8132
816.7399,799.011,802.6374,836.8865
815.12823,802.6374,801.8315,809.89014
804.65204,802.6374,792.5641,765.16486
794.9817,805.05493,789.7436,776.04395
797.8022,806.6667,799.81683,821.978
792.1612,805.4579,796.5934,818.3516
784.90845,801.8315,787.72894,792.5641
784.90845,798.20514,789.7436,765.9707
793.7729,806.6667,805.8608,778.0586
789.34064,807.0696,805.8608,816.7399
780.07324,801.4286,794.57874,818.7546
786.52014,801.4286,799.81683,801.4286
796.99634,801.8315,803.44324,779.67035
792.5641,803.44324,794.9817,765.56775
782.8938,804.2491,788.1319,796.5934
784.5055,801.8315,792.5641,819.15753
785.7143,795.78754,796.99634,816.337
786.1172,797.3993,790.14655,782.0879
791.3553,801.02563,786.1172,757.50916
797.8022,800.6227,794.9817,805.05493
808.2784,812.3077,809.0842,843.73627
809.4872,809.4872,804.65204,828.4249
794.57874,792.5641,786.52014,757.9121
788.93774,794.17584,784.10254,791.75824
801.4286,794.57874,792.1612,785.31134
794.17584,797.8022,786.1172,815.12823
798.60803,800.2198,788.93774,806.6667
789.34064,796.99634,787.72894,780.07324
793.7729,801.02563,786.9231,747.8388
794.9817,807.47253,792.5641,787.326
781.685,805.8608,794.17584,823.5897
787.326,813.5165,802.23444,820.7692
785.7143,816.7399,799.81683,794.57874
767.98535,796.1905,780.07324,742.6007
764.35895,783.2967,784.10254,768.7912
780.4762,797.8022,801.4286,826.0073
774.43225,797.3993,795.78754,816.337
769.59705,790.54944,784.10254,781.28204
776.8498,790.54944,781.28204,752.674
776.8498,792.96704,785.31134,773.22345
777.25275,797.8022,786.1172,815.5311
788.1319,798.20514,783.69965,819.15753
801.02563,805.05493,786.9231,808.2784
801.8315,815.12823,792.5641,785.31134
801.8315,808.68134,783.2967,782.8938
802.6374,800.6227,780.07324,819.5604
804.2491,803.44324,790.9524,832.8571
811.9048,806.6667,794.57874,821.978
807.0696,802.23444,783.2967,780.4762
799.81683,801.8315,778.86444,774.83514
794.9817,806.26373,780.87915,820.7692
794.9817,797.8022,782.8938,774.83514
789.7436,796.5934,779.67035,758.71796
782.49084,803.0403,774.83514,794.57874
796.5934,804.2491,781.685,812.3077
796.1905,805.8608,780.4762,811.0989
771.6117,799.011,774.43225,801.02563
778.0586,797.8022,777.6557,787.326
796.1905,807.0696,790.54944,775.64105
786.1172,801.02563,787.326,757.9121
778.0586,794.57874,776.04395,787.326
786.9231,802.6374,778.86444,804.65204
794.9817,806.26373,782.8938,798.60803
788.5348,798.20514,776.4469,771.2088
779.67035,799.41394,773.22345,744.21246
782.49084,806.26373,775.64105,788.93774
785.7143,809.4872,776.8498,828.4249
782.49084,805.8608,775.2381,816.337
784.5055,801.8315,771.2088,785.7143
793.7729,801.4286,774.0293,778.46155
814.7253,815.12823,790.14655,826.0073
813.91943,811.50183,784.5055,854.61536
788.93774,794.9817,773.22345,832.4542
786.52014,798.60803,775.64105,802.6374
792.1612,796.99634,774.43225,778.0586
793.7729,797.3993,775.64105,793.36993
804.65204,806.6667,781.685,836.08057
805.05493,810.293,784.90845,842.52747
797.3993,807.0696,777.6557,810.293
788.5348,803.0403,774.0293,770.40295
784.10254,799.011,775.2381,780.07324
797.8022,804.65204,786.52014,828.4249
798.20514,811.0989,791.75824,832.4542
786.52014,804.65204,780.4762,792.96704
785.7143,797.3993,776.4469,749.45056
783.69965,794.57874,778.0586,762.3443
796.5934,800.2198,778.0586,809.4872
809.89014,806.26373,780.07324,812.3077
804.2491,805.4579,781.685,798.20514
805.4579,801.8315,778.0586,768.7912
806.6667,803.8461,778.46155,762.74725
802.23444,807.0696,785.7143,809.0842
803.8461,811.9048,792.5641,836.08057
810.293,817.1429,798.20514,832.4542
811.50183,810.293,791.75824,794.9817
797.8022,801.02563,782.49084,821.978
803.0403,799.41394,782.0879,780.07324
788.93774,801.4286,779.67035,834.87177
786.9231,794.17584,780.87915,819.9634
788.93774,791.3553,778.46155,784.90845
792.96704,794.9817,773.22345,760.32965
794.17584,796.99634,774.43225,827.619
795.78754,798.20514,775.2381,803.44324
790.54944,795.78754,772.4176,812.71063
808.2784,817.1429,791.75824,774.0293
799.011,810.293,786.1172,796.99634
789.34064,796.99634,772.4176,787.326
782.49084,789.7436,768.7912,811.50183
788.5348,792.1612,774.0293,798.20514
782.8938,794.17584,769.59705,763.5531
779.67035,796.99634,767.1795,733.3333
784.10254,796.5934,771.2088,766.3736
794.9817,795.78754,767.98535,803.0403
789.7436,795.38464,771.2088,803.0403
792.1612,803.0403,765.56775,763.1502
793.7729,799.011,768.7912,787.72894
800.6227,804.65204,767.5824,791.3553
805.8608,796.5934,770.40295,827.2161
809.4872,794.57874,769.59705,822.7839
810.696,791.75824,770.80585,798.60803
812.71063,794.57874,779.2674,775.64105
811.9048,793.36993,778.46155,799.41394
808.2784,794.57874,772.4176,839.304
806.26373,808.2784,777.25275,846.1539
798.20514,805.8608,780.07324,829.6337
798.60803,797.8022,776.04395,792.1612
812.3077,808.68134,776.04395,799.41394
817.5458,821.5751,780.4762,842.52747
804.65204,807.8755,780.07324,840.5128
785.7143,792.5641,772.8205,803.44324
786.1172,795.38464,770.80585,762.74725
782.49084,797.3993,773.6264,765.9707
774.43225,797.3993,776.04395,807.8755
778.46155,800.2198,774.0293,815.5311
779.2674,797.8022,767.1795,794.17584
777.6557,797.3993,766.3736,763.5531
778.86444,797.8022,770.40295,754.2857
776.04395,795.78754,771.6117,796.5934
778.46155,805.8608,777.6557,821.1722
800.2198,824.7985,792.5641,820.3663
796.99634,811.0989,779.67035,779.67035
792.96704,792.5641,767.5824,750.2564
808.2784,799.81683,779.67035,804.2491
817.1429,809.4872,786.9231,840.5128
813.5165,803.44324,778.46155,822.7839
813.5165,801.8315,772.01465,794.9817
814.3223,808.68134,767.98535,781.28204
824.3956,818.7546,771.6117,818.3516
834.0659,813.91943,770.80585,840.5128
826.0073,803.8461,770.40295,827.2161
819.15753,809.0842,782.49084,803.8461
809.0842,805.05493,780.4762,779.67035
786.52014,795.38464,773.22345,808.68134
779.2674,795.78754,777.6557,837.28937
784.5055,801.4286,782.8938,827.619
782.0879,803.44324,776.4469,796.1905
772.4176,794.9817,763.5531,753.47986
778.0586,801.02563,763.5531,774.83514
783.69965,804.65204,768.7912,814.3223
771.6117,794.57874,767.5824,804.2491
768.7912,794.57874,766.77655,776.04395
775.64105,798.60803,766.3736,739.3773
782.8938,799.41394,764.7619,752.27106
788.1319,805.05493,766.77655,793.7729
795.78754,806.6667,772.01465,801.4286
797.3993,795.38464,774.0293,787.326
792.5641,798.20514,778.46155,753.47986
798.20514,803.0403,781.685,763.95605
795.38464,797.3993,780.07324,815.5311
787.72894,793.7729,775.64105,819.15753
799.011,793.36993,775.2381,799.81683
795.38464,792.1612,771.6117,769.59705
792.1612,793.7729,770.80585,770.80585
799.81683,798.60803,776.8498,823.9927
790.9524,798.60803,777.25275,837.28937
803.44324,795.38464,768.7912,779.67035
803.44324,795.78754,769.19415,771.6117
795.38464,795.78754,773.22345,813.5165
809.0842,797.8022,779.2674,815.12823
787.326,791.75824,772.01465,799.41394
796.99634,792.1612,777.6557,824.3956
771.6117,791.75824,768.7912,760.32965
762.3443,787.326,769.19415,741.39197
769.59705,788.5348,777.6557,789.34064
766.3736,793.36993,780.87915,816.337
762.3443,794.9817,783.2967,806.26373
758.315,795.78754,781.28204,768.7912
763.5531,796.99634,771.6117,744.21246
772.4176,805.05493,771.2088,786.52014
777.6557,803.44324,777.25275,816.337
785.31134,795.78754,777.6557,806.26373
787.72894,794.17584,772.8205,769.19415
791.3553,798.60803,774.83514,738.5714
800.6227,807.8755,783.69965,780.87915
800.2198,806.6667,780.87915,808.68134
791.3553,804.2491,766.3736,788.93774
788.93774,803.8461,761.53845,764.35895
797.8022,799.41394,759.5238,744.61536
802.6374,797.8022,763.95605,783.2967
796.99634,800.2198,771.6117,825.2015
798.20514,803.8461,777.25275,831.2454
799.81683,801.4286,772.8205,806.6667
792.1612,795.78754,761.9414,764.7619
788.5348,794.57874,762.3443,786.1172
784.90845,801.02563,767.1795,826.0073
784.5055,805.05493,768.3883,815.9341
774.83514,797.8022,758.315,750.65936
782.0879,797.3993,761.9414,748.6447
790.9524,800.6227,766.77655,786.9231
782.8938,802.23444,763.5531,794.17584
778.0586,807.8755,765.56775,793.36993
780.4762,805.4579,763.1502,770.0
789.7436,807.47253,768.3883,757.9121
786.52014,802.6374,768.7912,762.74725
788.1319,796.5934,764.7619,801.8315
796.1905,798.20514,764.7619,822.381
793.36993,802.23444,763.5531,813.5165
781.685,801.8315,761.9414,782.49084
786.1172,802.6374,765.9707,778.0586
792.96704,810.293,773.6264,825.6044
788.5348,808.2784,769.59705,830.84247
786.1172,802.23444,765.56775,805.8608
790.54944,801.4286,767.1795,776.8498
800.6227,802.6374,767.98535,769.59705
798.60803,800.6227,765.56775,805.05493
796.1905,800.6227,769.19415,827.2161
793.7729,797.8022,765.9707,805.8608
789.7436,791.3553,761.53845,770.80585
788.93774,795.78754,766.77655,759.12085
791.75824,798.60803,770.40295,792.1612
789.34064,799.41394,771.2088,819.15753
793.7729,803.8461,776.04395,815.5311
796.5934,803.44324,778.0586,788.1319
786.9231,800.6227,773.6264,759.12085
787.72894,807.0696,778.0586,792.5641
789.34064,805.8608,773.6264,818.3516
788.93774,805.8608,772.01465,806.26373
789.34064,804.65204,772.4176,780.4762
783.69965,801.02563,771.6117,754.2857
797.3993,811.0989,786.1172,796.5934
805.8608,815.12823,791.75824,828.8278
787.72894,806.26373,783.69965,807.8755
781.685,801.8315,777.25275,784.10254
782.8938,798.60803,774.0293,752.27106
776.04395,801.4286,780.07324,819.9634
779.67035,798.60803,776.4469,772.4176
785.7143,809.0842,780.07324,822.7839
788.5348,808.68134,774.43225,794.17584
785.31134,803.0403,767.1795,759.12085
782.49084,799.011,764.7619,773.22345
789.34064,800.2198,771.6117,820.3663
784.90845,799.81683,773.22345,834.0659
780.87915,797.3993,767.5824,809.0842
780.4762,799.41394,767.5824,768.3883
776.04395,798.20514,765.56775,766.77655
783.69965,797.8022,767.98535,817.9487
786.9231,803.0403,772.8205,832.4542
783.69965,807.8755,772.8205,807.47253
784.90845,805.8608,770.40295,764.7619
781.28204,796.5934,779.2674,823.9927
786.52014,796.1905,771.6117,760.32965
782.49084,797.3993,781.685,802.6374
787.72894,798.60803,776.8498,814.3223
774.43225,799.41394,780.87915,772.01465
761.53845,791.75824,773.6264,749.0476
782.8938,801.4286,778.86444,795.38464
793.36993,809.4872,783.69965,830.84247
790.9524,811.50183,782.49084,812.71063
792.1612,811.9048,779.2674,782.0879
788.1319,804.65204,773.6264,763.95605
785.7143,806.6667,776.8498,798.20514
790.54944,811.50183,780.07324,822.381
791.75824,809.4872,776.04395,805.05493
797.3993,813.1135,780.87915,783.2967
807.0696,807.47253,781.685,762.74725
799.81683,798.60803,772.8205,784.90845
788.93774,799.011,771.2088,818.7546
773.6264,801.02563,772.8205,823.5897
756.30035,794.57874,771.6117,798.20514
747.03296,789.34064,770.40295,762.3443
768.7912,802.6374,778.86444,820.7692
761.13556,798.20514,779.2674,824.3956
771.6117,803.44324,776.4469,794.17584
782.0879,811.9048,790.9524,794.17584
755.4945,794.9817,775.64105,786.9231
771.6117,801.02563,772.8205,756.7033
771.6117,792.96704,778.46155,816.7399
769.19415,798.60803,779.2674,793.36993
779.67035,803.8461,792.1612,831.2454
769.59705,801.8315,776.8498,751.8681
771.2088,799.81683,777.25275,759.5238
777.25275,799.81683,781.28204,806.26373
784.5055,810.696,786.9231,820.3663
785.31134,805.4579,783.2967,793.36993
785.7143,801.4286,777.25275,752.674
794.17584,803.8461,773.6264,760.32965
807.47253,809.0842,781.685,815.5311
799.41394,809.4872,785.7143,815.12823
786.1172,806.6667,775.2381,788.93774
792.96704,805.05493,779.2674,770.80585
790.9524,798.60803,784.5055,770.80585
793.36993,799.41394,778.0586,817.9487
790.14655,798.20514,770.40295,826.0073
787.326,796.99634,772.8205,802.23444
795.78754,800.6227,775.2381,775.2381
795.78754,795.78754,776.4469,768.3883
789.7436,795.78754,782.49084,809.0842
787.72894,802.6374,786.1172,832.4542
811.0989,823.5897,803.44324,836.8865
802.6374,814.7253,789.7436,787.72894
780.87915,787.72894,764.35895,744.61536
785.31134,792.1612,776.8498,799.81683
780.87915,799.41394,780.4762,823.1868
781.28204,793.7729,772.8205,797.3993
785.31134,788.93774,771.6117,773.22345
781.685,790.9524,771.6117,747.8388
775.64105,790.54944,771.2088,776.4469
779.2674,791.3553,772.8205,811.50183
786.1172,801.02563,776.04395,807.8755
789.7436,810.293,782.49084,790.9524
799.81683,806.6667,781.685,763.95605
783.69965,789.34064,772.01465,774.83514
774.83514,782.49084,770.80585,813.91943
791.3553,792.1612,772.8205,819.5604
794.9817,797.8022,769.59705,789.34064
794.57874,792.96704,768.3883,752.27106
799.011,797.3993,777.6557,782.8938
802.23444,803.44324,782.8938,824.3956
793.7729,801.02563,778.0586,812.71063
786.9231,799.41394,773.6264,795.38464
794.17584,811.50183,786.52014,789.34064
788.1319,802.23444,776.04395,767.98535
786.9231,801.8315,786.1172,804.65204
793.36993,807.47253,788.1319,828.8278
800.6227,818.3516,799.011,790.54944
796.1905,808.2784,786.1172,776.4469
784.90845,795.78754,784.10254,818.7546
790.9524,798.60803,777.6557,809.89014
799.011,803.0403,786.52014,824.7985
796.5934,802.6374,778.46155,799.81683
784.90845,801.8315,773.22345,771.6117
790.54944,802.23444,774.43225,757.50916
798.20514,809.89014,779.67035,802.23444
792.96704,810.696,783.69965,831.2454
788.1319,803.0403,777.25275,808.2784
790.54944,804.2491,772.8205,771.6117
802.23444,809.4872,780.87915,776.8498
812.71063,804.65204,781.28204,820.3663
810.293,800.2198,779.2674,833.663
796.5934,805.8608,784.10254,822.381
796.1905,805.4579,782.8938,788.93774
796.99634,801.02563,774.83514,761.9414
783.2967,802.6374,777.25275,794.17584
785.31134,806.26373,784.5055,817.1429
790.9524,806.6667,782.8938,809.0842
786.52014,802.6374,778.0586,775.2381
785.31134,802.6374,777.6557,748.24176
786.1172,803.8461,782.49084,790.54944
780.07324,797.8022,781.685,821.5751
776.8498,792.96704,776.8498,803.8461
781.28204,795.78754,778.0586,778.0586
792.1612,803.0403,784.90845,761.53845
807.47253,814.7253,796.1905,794.17584
792.5641,811.0989,791.3553,823.1868
774.0293,796.99634,778.0586,809.4872
785.31134,803.0403,783.69965,794.17584
781.28204,806.26373,783.2967,763.5531
774.83514,799.81683,778.46155,776.4469
786.9231,799.011,782.8938,822.381
803.0403,812.3077,796.1905,835.2747
801.02563,816.337,792.5641,805.4579
788.5348,796.1905,782.0879,761.53845
803.0403,794.9817,786.1172,783.2967
818.7546,803.8461,787.72894,831.6484
809.0842,801.4286,785.31134,822.7839
802.23444,797.8022,778.86444,788.93774
799.41394,798.60803,775.2381,755.89746
793.36993,801.8315,778.86444,765.16486
789.34064,810.696,782.8938,811.9048
774.43225,801.8315,783.2967,815.9341
764.7619,796.1905,782.0879,792.5641
774.83514,809.0842,788.1319,773.6264
771.2088,802.6374,786.52014,761.53845
762.74725,795.78754,780.07324,794.9817
760.7326,799.011,782.49084,812.3077
761.13556,798.20514,779.2674,788.5348
767.98535,798.20514,777.6557,759.92676
775.64105,795.78754,780.07324,760.7326
782.8938,801.02563,783.2967,814.3223
785.31134,803.8461,788.1319,834.0659
788.5348,803.44324,784.90845,812.3077
789.7436,804.65204,778.46155,782.0879
803.44324,811.0989,786.1172,778.86444
814.3223,817.1429,796.5934,819.5604
805.4579,805.05493,788.93774,828.022
802.6374,798.60803,783.69965,811.0989
799.41394,797.8022,783.69965,780.07324
788.93774,803.8461,786.1172,788.93774
794.9817,807.0696,793.7729,819.5604
794.57874,801.02563,783.69965,753.47986
791.3553,806.6667,791.3553,828.4249
795.78754,806.26373,787.326,789.34064
793.7729,809.0842,782.8938,761.9414
791.3553,811.0989,787.326,785.7143
798.60803,818.3516,802.23444,825.6044
786.52014,810.293,800.2198,813.1135
768.3883,793.36993,784.5055,771.2088
773.22345,795.78754,794.57874,749.85345
785.31134,801.8315,803.44324,777.6557
776.8498,798.20514,794.17584,799.81683
763.1502,798.60803,788.1319,790.9524
765.9707,799.011,790.14655,772.01465
765.9707,797.8022,793.36993,749.45056
767.98535,799.011,784.10254,794.9817
762.74725,797.8022,786.9231,757.1062
786.1172,809.0842,796.5934,820.7692
794.17584,808.2784,796.99634,807.8755
792.5641,794.57874,776.4469,769.19415
783.69965,793.7729,781.28204,763.95605
791.3553,803.8461,788.93774,821.5751
795.38464,799.41394,782.49084,813.5165
799.81683,806.6667,789.7436,809.89014
798.60803,801.02563,789.7436,779.2674
793.36993,805.05493,790.14655,821.5751
786.52014,801.8315,789.7436,834.4689
784.10254,804.2491,788.5348,815.12823
792.96704,812.3077,794.17584,794.9817
803.44324,805.05493,790.14655,783.69965
787.72894,807.0696,791.3553,778.0586
781.28204,799.011,786.1172,798.60803
785.31134,796.5934,792.1612,817.1429
784.90845,801.8315,802.23444,802.6374
771.2088,798.20514,796.1905,764.7619
758.315,792.1612,788.5348,741.79486
769.19415,794.9817,791.75824,780.87915
770.80585,796.1905,790.54944,806.26373
772.8205,792.96704,786.52014,789.34064
777.6557,788.93774,790.54944,763.5531
785.31134,798.60803,799.81683,763.95605
787.326,804.65204,800.6227,805.4579
777.25275,791.75824,793.36993,818.3516
792.96704,796.1905,797.3993,802.6374
789.34064,801.4286,793.7729,769.19415
774.43225,800.2198,796.1905,821.1722
782.8938,798.60803,790.9524,794.9817
792.5641,799.011,794.17584,828.022
794.9817,800.6227,791.3553,828.4249
791.75824,801.02563,786.9231,797.3993
786.1172,794.57874,785.31134,757.50916
782.8938,792.1612,787.326,780.87915
792.1612,803.8461,795.78754,817.5458
789.7436,797.8022,790.54944,784.90845
790.9524,796.1905,788.93774,751.06226
794.57874,803.44324,796.99634,813.91943
801.4286,795.78754,792.5641,764.7619
800.6227,798.60803,791.75824,794.9817
784.10254,796.1905,783.69965,789.7436
784.10254,804.2491,792.5641,786.9231
772.01465,804.65204,786.52014,811.50183
768.3883,807.47253,785.31134,789.34064
798.60803,826.8132,816.337,783.69965
791.3553,814.3223,812.3077,780.87915
777.6557,798.60803,792.1612,807.0696
770.80585,799.41394,782.49084,750.65936
779.67035,790.14655,785.7143,753.47986
798.60803,802.23444,804.2491,817.9487
803.44324,811.50183,808.2784,834.0659
789.7436,801.4286,790.9524,801.02563
789.7436,793.7729,782.8938,761.13556
793.7729,794.17584,783.69965,754.68866
788.1319,795.38464,785.7143,807.47253
802.23444,805.8608,786.9231,807.8755
801.8315,812.3077,787.72894,782.49084
787.72894,793.7729,784.10254,829.6337
787.72894,807.0696,782.49084,768.3883
782.0879,806.6667,780.4762,794.57874
782.8938,813.1135,785.31134,820.7692
797.8022,821.978,801.4286,822.7839
796.1905,810.696,798.60803,784.90845
785.7143,803.8461,784.5055,749.45056
780.07324,804.65204,782.8938,781.685
781.685,801.8315,785.7143,809.4872
781.28204,799.41394,786.52014,799.81683
772.4176,793.7729,786.1172,771.2088
779.67035,803.0403,784.10254,771.2088
782.8938,804.65204,792.96704,747.03296
777.25275,798.20514,782.8938,809.0842
790.14655,801.02563,788.93774,805.4579
793.7729,806.26373,791.3553,783.2967
789.34064,806.6667,792.5641,757.1062
785.7143,799.011,784.10254,775.64105
787.72894,800.6227,789.34064,819.5604
791.3553,804.2491,792.96704,817.5458
797.3993,807.0696,788.5348,792.1612
794.9817,802.23444,786.9231,755.89746
792.1612,800.2198,788.93774,772.8205
793.7729,809.89014,796.5934,818.3516
790.14655,809.0842,794.57874,822.7839
789.34064,806.26373,790.9524,808.68134
780.87915,807.0696,785.31134,762.74725
777.6557,803.8461,778.0586,757.50916
790.54944,804.2491,782.0879,809.89014
790.9524,800.2198,789.7436,821.1722
785.31134,801.02563,789.7436,793.7729
776.8498,800.2198,784.10254,752.674
776.4469,799.41394,781.685,751.8681
787.72894,801.8315,784.10254,808.2784
790.14655,802.23444,789.7436,825.2015
783.2967,802.6374,788.5348,794.57874
778.86444,801.02563,784.10254,756.7033
784.10254,806.6667,786.52014,751.8681
792.96704,810.696,790.14655,802.6374
803.44324,813.91943,794.57874,830.4396
803.44324,805.8608,790.54944,806.6667
800.2198,798.60803,783.2967,765.56775
799.81683,796.5934,782.8938,753.47986
790.14655,800.2198,785.31134,798.60803
788.1319,803.0403,785.7143,826.4103
791.3553,803.44324,782.49084,810.696
787.326,802.6374,785.31134,788.5348
778.46155,800.6227,786.9231,763.5531
783.2967,803.44324,786.9231,793.7729
793.7729,810.293,796.5934,836.4835
792.1612,816.337,799.81683,823.9927
787.72894,814.7253,789.7436,786.1172
790.54944,810.696,788.93774,764.7619
799.41394,804.65204,792.1612,789.7436
799.81683,799.81683,790.9524,820.7692
789.7436,800.2198,788.5348,812.71063
787.326,801.4286,793.36993,788.1319
787.72894,802.6374,793.7729,760.32965
780.87915,801.8315,788.93774,779.67035
783.2967,805.8608,790.9524,818.3516
791.3553,809.0842,795.38464,825.6044
790.54944,805.8608,798.60803,808.2784
779.67035,801.02563,794.57874,764.7619
781.28204,797.8022,790.14655,767.1795
791.75824,802.6374,789.7436,809.0842
791.3553,801.02563,791.75824,820.3663
791.3553,797.8022,794.57874,795.78754
792.5641,796.1905,794.9817,767.98535
790.9524,799.41394,791.75824,780.4762
788.93774,800.6227,790.54944,815.12823
790.54944,798.60803,789.34064,818.7546
796.5934,803.0403,787.72894,802.6374
799.41394,803.8461,788.5348,780.87915
800.2198,798.20514,784.90845,782.8938
796.5934,799.011,786.9231,824.3956
796.1905,805.05493,792.96704,843.3333
787.326,795.38464,787.72894,820.7692
781.28204,791.75824,786.52014,779.2674
782.0879,797.3993,788.1319,772.8205
785.7143,797.3993,785.7143,811.0989
794.57874,800.2198,785.31134,824.3956
788.1319,799.011,782.0879,803.44324
782.49084,792.1612,780.07324,764.7619
771.2088,790.9524,782.0879,754.68866
767.5824,796.1905,783.69965,795.38464
779.2674,801.4286,785.31134,817.1429
773.22345,800.6227,783.69965,801.8315
769.59705,799.81683,779.67035,763.1502
784.10254,803.44324,782.49084,750.65936
791.3553,805.8608,790.9524,795.38464
787.326,805.05493,794.57874,825.2015
788.93774,803.8461,789.34064,816.7399
792.96704,803.0403,786.52014,791.3553
795.78754,801.4286,783.2967,761.53845
787.72894,795.38464,784.5055,819.9634
792.1612,795.78754,782.8938,788.5348
787.72894,800.2198,787.326,816.7399
792.5641,804.2491,786.9231,797.3993
792.96704,802.6374,779.67035,763.95605
796.99634,801.4286,781.28204,788.93774
800.2198,802.23444,791.3553,831.2454
795.78754,798.60803,788.93774,826.0073
788.1319,793.36993,783.2967,786.9231
777.6557,794.17584,781.685,746.63007
776.04395,796.99634,780.87915,766.77655
774.0293,794.9817,783.69965,805.4579
776.8498,801.02563,788.5348,790.9524
780.4762,796.5934,788.5348,757.1062
776.04395,795.78754,782.0879,804.2491
781.685,796.5934,786.52014,759.92676
781.685,803.44324,788.1319,803.0403
792.96704,808.68134,799.81683,827.619
793.7729,804.65204,801.02563,816.337
781.685,797.3993,788.1319,768.7912
781.685,797.8022,786.1172,765.56775
787.72894,801.02563,788.93774,819.5604
792.1612,801.02563,792.1612,838.0952
799.011,800.2198,790.9524,818.3516
805.8608,803.0403,790.14655,786.9231
802.6374,804.2491,786.1172,773.6264
798.20514,804.2491,786.1172,813.1135
796.5934,808.68134,787.326,828.4249
800.6227,812.3077,786.1172,806.26373
805.8608,809.4872,788.1319,780.87915
797.3993,805.05493,784.10254,758.315
793.7729,801.4286,782.49084,786.9231
795.78754,802.6374,789.34064,813.5165
804.2491,816.337,804.65204,815.12823
795.78754,813.5165,800.6227,779.67035
773.6264,791.3553,780.4762,792.1612
774.43225,803.44324,783.2967,764.35895
775.64105,807.8755,785.7143,736.55676
778.46155,803.8461,788.1319,775.64105
780.87915,799.81683,787.326,812.71063
775.2381,799.81683,784.10254,747.8388
781.685,798.60803,785.7143,785.31134
782.8938,794.57874,785.31134,807.8755
785.7143,798.60803,788.93774,811.9048
797.3993,801.8315,789.7436,790.14655
792.1612,799.41394,779.67035,751.4652
793.36993,806.26373,781.685,780.87915
802.6374,808.2784,786.52014,819.9634
796.5934,800.2198,787.326,797.8022
793.7729,801.02563,784.10254,784.90845
800.2198,811.0989,794.17584,823.9927
793.36993,795.38464,783.2967,768.7912
796.5934,806.6667,792.96704,821.5751
802.23444,803.44324,787.72894,816.7399
785.7143,794.57874,781.685,755.09155
786.52014,796.99634,786.9231,792.1612
784.90845,799.011,779.2674,802.6374
794.17584,806.26373,780.87915,766.77655
777.6557,788.1319,782.8938,819.15753
782.49084,797.8022,787.72894,805.8608
779.67035,801.4286,785.7143,760.32965
775.2381,795.38464,787.72894,762.74725
782.8938,800.6227,789.34064,818.3516
782.8938,814.3223,792.5641,833.2601
780.4762,813.91943,788.1319,800.6227
773.6264,799.81683,777.6557,763.1502
772.01465,796.99634,778.86444,763.5531
785.31134,805.4579,789.34064,812.71063
790.9524,801.8315,790.54944,826.4103
794.9817,800.2198,786.52014,801.8315
792.1612,802.6374,786.1172,766.77655
794.57874,805.05493,784.10254,756.7033
797.3993,805.4579,788.93774,806.26373
790.9524,809.0842,795.78754,836.8865
786.9231,812.71063,796.5934,830.84247
782.8938,812.3077,790.14655,801.02563
774.0293,803.8461,786.9231,771.2088
771.2088,806.26373,791.3553,803.0403
769.19415,806.26373,792.96704,834.87177
774.0293,807.0696,793.36993,818.3516
775.64105,808.68134,784.10254,777.25275
771.6117,801.02563,774.0293,749.45056
780.87915,803.44324,780.87915,772.4176
785.7143,803.0403,785.7143,787.72894
785.31134,803.8461,786.1172,796.1905
786.1172,810.696,793.36993,771.2088
787.72894,809.89014,787.72894,772.01465
790.54944,810.293,792.5641,753.47986
778.46155,810.293,789.7436,809.89014
771.6117,808.2784,785.7143,809.89014
777.6557,805.4579,786.1172,791.75824
781.685,801.8315,783.2967,761.13556
780.07324,795.38464,780.87915,770.0
783.2967,796.99634,788.1319,819.9634
779.2674,801.4286,786.1172,819.15753
779.2674,805.05493,785.31134,797.3993
784.5055,807.0696,783.69965,760.7326
793.7729,806.6667,786.9231,767.98535
799.41394,808.68134,795.38464,829.6337
792.96704,811.50183,792.96704,826.4103
791.75824,810.293,790.54944,793.36993
793.7729,811.50183,789.7436,765.16486
788.5348,811.0989,786.1172,762.74725
791.3553,807.0696,786.52014,810.293
786.9231,798.20514,787.326,823.5897
786.1172,807.0696,794.9817,803.44324
796.5934,830.4396,812.3077,787.326
778.46155,806.26373,792.1612,782.8938
787.72894,810.696,794.17584,807.0696
801.4286,813.1135,792.1612,790.54944
791.75824,811.9048,786.52014,751.06226
792.96704,821.978,805.05493,765.16486
794.9817,815.12823,795.78754,796.99634
785.7143,809.4872,782.8938,736.1539
799.81683,815.9341,800.2198,830.84247
803.0403,806.26373,789.7436,775.2381
798.20514,807.0696,790.54944,804.65204
801.8315,803.8461,790.54944,751.4652
801.4286,799.011,788.5348,792.96704
799.011,796.99634,782.49084,819.9634
789.7436,797.8022,784.10254,802.23444
784.90845,803.44324,788.1319,772.8205
780.87915,804.65204,784.90845,746.2271
776.8498,809.0842,784.90845,778.0586
782.49084,815.5311,789.7436,819.9634
790.9524,823.5897,796.99634,821.978
788.1319,815.12823,793.7729,788.5348
782.49084,801.8315,783.2967,747.8388
784.5055,807.8755,784.5055,776.4469
786.52014,808.68134,785.31134,815.12823
788.5348,799.81683,784.10254,804.65204
790.14655,797.8022,785.31134,782.49084
788.1319,796.1905,786.52014,746.2271
791.75824,795.38464,785.31134,757.50916
790.14655,799.81683,782.49084,811.0989
786.52014,805.05493,785.7143,818.3516
790.14655,805.4579,790.14655,793.36993
781.28204,793.36993,785.31134,756.30035
770.80585,788.5348,783.2967,759.12085
782.0879,798.60803,792.96704,806.26373
798.20514,812.3077,804.2491,833.2601
801.02563,811.0989,799.81683,806.26373
791.75824,802.6374,784.5055,755.09155
790.9524,803.0403,783.2967,757.1062
788.93774,800.2198,789.34064,803.44324
783.2967,798.20514,786.9231,812.71063
779.2674,798.20514,784.5055,797.3993
784.5055,799.81683,784.90845,769.19415
787.326,800.2198,783.2967,761.13556
789.7436,803.8461,786.9231,807.8755
784.10254,805.05493,793.7729,822.381
779.2674,797.8022,790.9524,799.011
789.34064,799.41394,791.3553,770.40295
777.25275,802.6374,788.5348,751.8681
765.16486,801.02563,786.1172,787.72894
773.22345,805.05493,788.1319,806.26373
771.6117,807.47253,790.9524,790.14655
770.80585,805.4579,790.54944,765.56775
777.6557,797.8022,784.90845,746.63007
787.72894,806.26373,792.5641,795.78754
