eeg_1,eeg_2,eeg_3,eeg_4
862.674,733.3333,821.978,761.9414
862.674,729.707,815.12823,753.47986
842.9304,734.94507,820.3663,787.326
826.8132,738.5714,819.5604,806.6667
844.1392,732.9304,807.47253,785.31134
853.00366,732.1245,807.0696,765.56775
853.00366,736.1539,811.50183,755.4945
842.9304,736.55676,809.89014,779.2674
835.6777,741.79486,810.696,802.6374
847.76556,745.0183,815.12823,797.8022
854.61536,746.2271,815.5311,783.2967
852.1978,749.0476,815.9341,765.56775
867.50916,746.63007,819.5604,778.46155
881.6117,753.8828,823.1868,806.26373
863.0769,753.8828,815.5311,795.38464
849.3773,735.7509,806.6667,755.4945
831.2454,741.79486,813.5165,738.97437
827.2161,749.0476,819.5604,766.77655
834.0659,746.2271,815.12823,790.9524
832.0513,749.0476,807.47253,782.8938
815.5311,751.8681,808.68134,767.1795
814.7253,753.8828,810.293,743.4066
818.7546,749.45056,803.8461,743.4066
798.60803,745.0183,805.4579,768.3883
792.96704,744.61536,803.0403,763.95605
817.1429,749.85345,799.41394,751.4652
821.1722,755.09155,803.8461,730.9158
812.71063,753.0769,801.4286,728.9011
824.7985,752.27106,802.23444,759.92676
833.2601,751.4652,807.8755,762.74725
829.2308,753.47986,805.4579,741.39197
835.2747,753.47986,796.5934,713.9927
821.5751,750.65936,795.78754,716.4103
807.0696,751.8681,800.2198,754.2857
809.89014,752.27106,797.8022,757.9121
806.6667,754.2857,797.8022,742.6007
823.5897,759.5238,804.2491,729.707
856.63007,764.7619,808.68134,730.10986
864.68866,765.16486,805.05493,761.13556
837.6923,760.7326,803.44324,774.0293
802.23444,755.89746,802.6374,761.9414
784.5055,755.89746,804.2491,743.4066
780.07324,755.89746,803.0403,731.31866
804.65204,759.5238,805.4579,778.46155
830.0366,761.13556,805.8608,762.3443
779.2674,756.30035,801.8315,760.7326
828.022,751.06226,803.44324,743.4066
814.7253,746.63007,802.6374,736.1539
816.337,751.4652,801.4286,767.98535
829.2308,754.68866,793.7729,775.2381
835.6777,757.50916,784.90845,755.89746
820.3663,758.315,785.31134,745.42126
814.7253,760.32965,795.78754,741.79486
811.50183,755.09155,802.23444,758.71796
796.99634,747.8388,792.96704,767.1795
804.2491,742.1978,781.28204,747.8388
808.2784,740.18317,781.685,730.9158
794.9817,737.76556,782.8938,717.2161
796.5934,731.31866,777.25275,733.3333
782.8938,728.49817,780.4762,763.5531
767.98535,724.4689,786.1172,758.315
765.9707,721.2454,786.9231,742.1978
760.7326,726.4835,790.14655,727.6923
751.06226,726.4835,796.1905,750.65936
737.76556,727.6923,790.9524,781.685
738.5714,727.28937,781.28204,770.40295
739.3773,726.08057,782.49084,755.89746
751.4652,728.9011,781.28204,735.7509
761.13556,722.4542,782.8938,736.1539
739.3773,713.1868,784.5055,757.9121
737.3626,707.9487,782.0879,745.82416
733.73627,711.5751,788.93774,730.5128
716.8132,718.8278,796.5934,719.2308
727.6923,719.6337,794.17584,720.4396
739.3773,720.4396,793.7729,748.24176
726.4835,717.2161,790.14655,750.65936
717.619,713.1868,785.7143,740.18317
711.978,710.3663,785.7143,718.022
708.7546,710.7692,788.5348,716.0073
722.0513,713.5897,790.9524,754.2857
747.03296,718.4249,796.5934,763.95605
757.1062,721.2454,801.8315,748.6447
744.61536,719.6337,800.6227,732.9304
756.7033,717.619,794.57874,724.0659
790.14655,711.1722,791.3553,746.63007
799.41394,710.7692,794.9817,759.12085
777.25275,707.9487,792.1612,743.4066
774.83514,699.4872,785.7143,727.6923
782.0879,708.7546,795.38464,725.2747
786.52014,717.619,805.05493,750.65936
777.25275,712.381,802.6374,759.5238
782.8938,714.3956,805.05493,754.2857
816.7399,719.6337,808.2784,748.24176
806.6667,716.8132,811.0989,725.2747
753.8828,710.3663,812.71063,745.42126
745.82416,717.2161,811.50183,774.0293
771.6117,722.0513,811.50183,759.12085
766.77655,716.4103,811.9048,743.00366
761.13556,719.2308,817.1429,736.55676
778.0586,718.4249,822.7839,760.7326
775.64105,709.9634,818.7546,783.69965
765.16486,708.7546,815.5311,776.8498
755.4945,716.0073,818.7546,760.32965
743.8095,716.8132,818.7546,734.94507
749.45056,719.2308,823.1868,750.65936
775.64105,725.2747,830.84247,789.7436
787.72894,731.7216,829.2308,789.7436
796.99634,734.94507,833.2601,776.4469
794.57874,731.7216,832.4542,750.2564
788.5348,730.10986,836.8865,757.1062
799.011,744.61536,855.42126,807.47253
793.7729,745.42126,861.8681,804.2491
808.68134,733.3333,856.2271,776.04395
809.89014,737.76556,856.2271,752.674
801.02563,741.39197,854.21246,750.65936
809.0842,738.5714,854.61536,779.2674
815.5311,733.3333,861.06226,782.49084
824.3956,725.2747,858.6447,765.16486
831.6484,722.0513,850.989,738.97437
836.4835,724.87177,842.1245,732.9304
821.5751,720.0366,840.5128,765.9707
805.4579,720.84247,849.3773,768.3883
809.89014,721.6484,850.58606,748.6447
815.9341,711.978,840.10986,728.0952
812.3077,707.9487,834.4689,715.6044
803.0403,707.5458,840.9158,755.89746
796.99634,711.978,840.9158,750.2564
803.8461,709.5604,846.55676,770.0
790.54944,710.3663,838.49817,730.10986
779.67035,708.7546,834.4689,716.0073
736.9597,702.71063,831.2454,749.0476
713.5897,695.05493,832.0513,762.74725
717.619,697.8755,830.0366,742.6007
728.0952,703.5165,828.022,726.4835
722.8571,693.0403,827.2161,716.4103
693.44324,685.78754,832.8571,741.79486
700.696,690.2198,835.2747,753.8828
719.2308,697.0696,830.0366,738.5714
703.1135,694.2491,828.022,723.2601
697.47253,680.14655,837.6923,709.15753
684.57874,684.9817,838.0952,757.50916
699.0842,691.02563,835.2747,739.7802
705.5311,689.81683,828.8278,721.6484
721.6484,685.38464,833.2601,713.1868
734.1392,686.5934,840.5128,734.1392
718.4249,689.81683,834.0659,753.47986
706.7399,683.7729,829.2308,748.6447
685.78754,670.87915,825.2015,728.0952
689.011,676.1172,842.1245,733.73627
677.72894,666.8498,824.7985,696.26373
695.4579,664.83514,826.4103,712.381
709.15753,657.1795,823.1868,748.6447
720.0366,662.01465,826.8132,751.06226
720.4396,666.4469,828.022,732.52747
724.4689,666.04395,820.7692,711.978
727.28937,669.2674,818.7546,723.663
727.6923,662.4176,823.9927,763.5531
724.0659,652.74725,825.2015,766.3736
721.2454,652.74725,824.3956,745.0183
725.2747,648.71796,821.1722,728.9011
750.2564,647.50916,823.1868,728.0952
726.4835,650.32965,820.3663,752.27106
715.6044,649.5238,805.05493,750.65936
730.10986,640.65936,798.20514,729.707
688.20514,632.1978,805.05493,705.9341
677.72894,632.1978,811.0989,700.696
690.2198,644.68866,808.68134,737.3626
697.8755,655.56775,813.5165,761.53845
701.9048,658.7912,821.978,757.9121
707.5458,651.13556,819.5604,743.4066
728.0952,647.1062,820.3663,734.1392
742.6007,662.01465,826.8132,768.7912
767.1795,666.8498,828.022,789.7436
785.7143,657.5824,821.5751,768.3883
755.4945,653.95605,805.8608,735.34796
736.1539,664.83514,803.0403,750.65936
772.8205,670.4762,817.1429,761.9414
783.2967,673.2967,817.5458,749.45056
748.24176,668.86444,812.3077,772.8205
783.2967,680.14655,822.381,736.1539
804.2491,668.0586,828.8278,775.64105
797.3993,666.4469,821.978,752.27106
790.14655,660.80585,806.26373,727.28937
794.17584,673.2967,823.1868,759.12085
807.8755,664.0293,821.978,782.49084
731.31866,660.40295,799.011,722.4542
788.93774,660.40295,809.0842,746.2271
773.22345,653.95605,798.20514,768.3883
776.4469,654.35895,792.5641,748.6447
776.8498,658.7912,794.57874,734.5421
780.87915,660.80585,809.4872,776.4469
781.28204,653.1502,791.3553,740.989
792.5641,648.71796,787.326,764.35895
786.52014,643.0769,789.7436,758.71796
754.2857,641.8681,790.14655,733.73627
757.9121,650.7326,793.7729,719.2308
766.77655,662.4176,794.57874,733.3333
721.2454,663.6264,790.9524,762.3443
708.7546,657.1795,785.31134,760.7326
720.84247,655.16486,787.326,748.6447
740.989,656.3736,790.9524,723.2601
757.9121,662.8205,796.1905,724.0659
724.0659,664.0293,794.17584,761.53845
716.8132,662.01465,784.90845,760.7326
743.00366,664.43225,786.1172,750.65936
747.03296,663.6264,788.1319,730.5128
747.03296,661.6117,786.1172,722.4542
745.0183,660.80585,785.31134,759.12085
778.46155,656.3736,788.93774,775.64105
798.20514,656.3736,802.23444,770.0
785.31134,662.4176,807.8755,755.09155
806.6667,663.6264,802.23444,749.0476
819.5604,666.4469,799.41394,786.9231
809.89014,670.87915,799.81683,802.23444
785.7143,664.0293,790.54944,767.5824
770.0,657.1795,781.685,738.5714
767.5824,661.6117,781.685,732.1245
782.8938,671.28204,785.7143,768.3883
804.2491,676.52014,790.14655,789.34064
807.47253,673.69965,781.28204,769.59705
816.337,671.685,777.25275,753.8828
811.9048,666.8498,784.90845,745.0183
800.2198,661.6117,785.7143,761.13556
796.1905,659.19415,784.5055,776.04395
830.4396,666.8498,789.7436,777.25275
830.84247,666.8498,785.7143,765.56775
782.0879,657.98535,778.0586,732.52747
770.40295,660.40295,776.8498,745.82416
790.9524,670.4762,785.31134,782.8938
800.2198,677.72894,791.3553,769.59705
774.83514,671.685,777.25275,730.9158
770.40295,665.2381,769.19415,704.7253
767.1795,666.04395,776.4469,726.4835
776.4469,676.9231,789.34064,762.74725
784.5055,676.52014,787.72894,754.68866
782.49084,676.1172,784.10254,745.0183
800.2198,686.99634,788.1319,731.7216
813.1135,682.96704,780.07324,732.9304
828.4249,674.5055,775.2381,755.89746
830.4396,674.5055,776.4469,755.89746
837.6923,687.8022,781.28204,746.2271
832.4542,698.2784,784.90845,730.5128
789.34064,695.8608,778.0586,732.1245
781.685,689.81683,772.8205,755.4945
783.69965,693.8461,772.01465,756.30035
823.9927,699.0842,772.01465,748.6447
871.13556,695.4579,762.3443,728.0952
847.76556,692.6374,757.9121,713.9927
848.5714,689.41394,754.2857,741.79486
863.8828,689.81683,754.68866,759.12085
856.63007,693.44324,763.5531,745.0183
862.674,703.1135,769.19415,724.4689
863.8828,710.7692,765.9707,724.4689
839.707,705.5311,763.95605,751.06226
829.6337,700.696,765.56775,755.09155
853.00366,718.4249,779.67035,738.1685
845.34796,707.1429,773.22345,746.63007
859.0476,706.337,770.40295,717.619
819.9634,701.0989,759.12085,751.8681
828.022,699.4872,763.5531,745.42126
824.3956,695.05493,770.0,735.34796
810.696,699.0842,759.92676,711.5751
809.4872,718.022,759.92676,743.8095
828.4249,721.6484,756.7033,770.0
836.4835,712.381,750.2564,748.24176
825.2015,719.6337,757.1062,736.1539
822.7839,725.2747,760.7326,726.4835
819.5604,717.2161,751.8681,738.1685
842.1245,697.47253,765.9707,736.55676
797.8022,707.9487,749.85345,757.9121
768.3883,713.1868,756.7033,755.4945
769.59705,718.8278,757.50916,739.3773
779.67035,714.7985,753.8828,713.1868
785.31134,716.0073,745.0183,730.10986
796.99634,718.022,742.1978,766.77655
781.28204,718.4249,738.1685,749.45056
779.67035,719.2308,735.34796,726.4835
776.4469,720.0366,734.94507,712.381
768.3883,722.4542,738.1685,724.87177
792.1612,719.2308,737.76556,758.315
789.34064,700.696,729.304,738.97437
802.23444,706.337,728.0952,752.27106
789.34064,708.7546,730.10986,722.4542
792.96704,713.9927,727.28937,719.2308
783.2967,710.7692,722.4542,743.8095
790.54944,713.9927,722.4542,748.6447
789.7436,724.87177,738.97437,748.6447
773.22345,722.0513,745.0183,728.49817
780.87915,721.6484,736.55676,712.7839
786.1172,730.9158,738.97437,747.4359
776.04395,728.9011,745.82416,770.40295
788.5348,735.7509,734.1392,709.5604
781.28204,731.7216,726.8865,697.47253
776.04395,728.49817,748.6447,755.09155
780.87915,722.0513,725.6777,728.49817
778.46155,720.4396,717.619,738.97437
767.98535,716.0073,721.2454,737.3626
788.1319,721.6484,731.7216,731.31866
785.31134,724.87177,728.0952,712.381
763.95605,723.2601,726.08057,736.9597
772.4176,723.2601,734.1392,758.71796
788.93774,719.6337,733.3333,735.34796
805.4579,724.87177,741.39197,730.9158
831.6484,721.6484,743.00366,717.619
829.6337,717.619,739.3773,730.9158
833.663,720.0366,740.58606,751.4652
853.8095,725.2747,745.82416,740.989
790.9524,707.5458,735.7509,751.8681
838.0952,724.0659,740.18317,718.022
818.7546,708.7546,730.9158,699.4872
809.89014,702.3077,730.9158,719.6337
786.1172,732.1245,747.8388,750.2564
781.28204,745.82416,747.4359,728.49817
779.67035,730.9158,746.63007,718.4249
774.83514,723.663,761.13556,748.6447
740.989,716.8132,752.674,770.40295
732.1245,716.8132,750.2564,763.1502
754.68866,720.84247,753.0769,743.00366
758.315,716.4103,749.45056,722.0513
766.3736,720.0366,759.12085,738.5714
788.5348,729.304,762.74725,777.6557
769.59705,732.1245,756.30035,767.98535
741.79486,728.0952,762.74725,749.0476
746.2271,721.6484,763.1502,732.52747
739.7802,716.0073,751.06226,725.2747
740.18317,717.619,745.0183,766.3736
755.09155,721.2454,745.42126,771.6117
763.1502,720.0366,741.79486,749.0476
775.2381,719.2308,739.7802,725.2747
762.3443,715.2015,746.2271,724.87177
748.24176,706.7399,739.7802,759.5238
755.89746,703.91943,728.49817,759.92676
755.09155,702.3077,730.5128,737.76556
765.9707,707.5458,739.7802,726.8865
756.30035,711.978,741.39197,721.2454
742.6007,713.1868,740.18317,749.45056
762.3443,714.7985,748.24176,780.07324
780.07324,718.8278,753.8828,773.22345
784.5055,718.4249,747.8388,740.58606
779.67035,711.978,736.9597,718.8278
770.40295,713.5897,737.76556,749.0476
766.3736,720.0366,747.8388,776.04395
767.1795,721.6484,747.8388,771.6117
762.3443,721.6484,747.8388,747.4359
762.3443,724.4689,746.2271,726.08057
765.9707,721.2454,738.5714,749.45056
747.4359,714.7985,740.18317,774.83514
728.9011,715.6044,747.8388,758.315
732.1245,719.6337,749.0476,734.94507
743.4066,723.2601,746.63007,724.87177
751.06226,725.2747,743.4066,746.2271
741.79486,722.4542,743.8095,771.6117
749.45056,722.8571,744.61536,761.9414
770.40295,728.9011,741.39197,743.00366
760.32965,732.9304,745.42126,728.49817
724.87177,737.76556,759.5238,778.86444
738.1685,734.5421,753.47986,749.85345
732.1245,736.1539,761.53845,782.8938
726.08057,733.73627,751.8681,755.4945
744.21246,741.39197,759.92676,742.1978
738.1685,749.0476,768.3883,756.7033
700.696,747.03296,761.13556,777.6557
697.8755,748.6447,763.5531,778.46155
699.0842,749.85345,770.40295,767.98535
693.0403,745.42126,771.6117,740.989
700.696,744.61536,767.1795,741.39197
703.5165,750.65936,762.74725,775.64105
702.3077,747.03296,761.53845,780.4762
713.9927,745.0183,760.32965,774.0293
718.022,745.82416,757.50916,743.4066
713.1868,755.09155,761.53845,734.1392
733.3333,760.7326,767.1795,773.22345
705.12823,746.2271,760.7326,783.69965
667.25275,732.9304,753.8828,765.16486
673.2967,734.94507,755.4945,733.3333
691.4286,738.5714,757.1062,726.4835
724.0659,731.7216,750.2564,760.32965
727.28937,730.10986,748.6447,779.67035
721.6484,734.5421,752.27106,766.3736
707.9487,727.28937,747.03296,734.5421
687.8022,718.4249,739.3773,716.4103
690.2198,722.8571,743.00366,748.6447
699.4872,722.8571,748.24176,768.3883
709.15753,721.6484,747.03296,750.2564
735.7509,732.9304,750.65936,730.5128
754.68866,742.6007,754.68866,716.8132
757.9121,738.1685,759.92676,757.1062
754.68866,736.55676,766.77655,788.1319
750.2564,743.4066,763.5531,762.3443
761.9414,742.1978,765.56775,748.24176
790.14655,737.3626,767.5824,736.1539
794.17584,742.6007,766.3736,759.12085
782.49084,745.82416,768.3883,792.1612
785.7143,738.1685,768.7912,788.5348
788.5348,729.707,757.9121,765.56775
795.38464,733.73627,752.27106,739.7802
809.89014,736.9597,751.8681,755.89746
797.8022,736.55676,758.315,801.8315
794.17584,739.3773,772.4176,813.5165
773.6264,734.1392,764.7619,778.86444
761.9414,730.5128,756.7033,746.63007
785.31134,737.76556,762.74725,770.40295
779.67035,745.0183,768.3883,806.6667
776.04395,747.8388,767.98535,799.81683
781.28204,749.0476,767.5824,774.0293
780.07324,747.03296,765.56775,743.4066
764.35895,743.8095,766.3736,755.4945
753.8828,745.0183,767.98535,793.7729
752.27106,749.0476,767.1795,786.9231
757.50916,752.27106,771.2088,769.59705
763.1502,755.89746,771.2088,753.47986
756.30035,757.9121,772.4176,755.89746
744.21246,754.2857,780.07324,794.9817
725.2747,748.24176,779.2674,803.0403
721.2454,746.63007,771.2088,776.8498
726.8865,749.0476,765.56775,741.39197
748.6447,747.4359,761.13556,736.55676
768.3883,742.6007,766.3736,787.326
765.56775,744.21246,770.40295,802.23444
757.50916,751.06226,764.7619,777.6557
771.2088,753.0769,757.9121,749.45056
783.2967,745.82416,747.03296,730.5128
776.4469,735.7509,748.24176,773.6264
765.9707,736.9597,762.74725,813.91943
790.14655,749.0476,770.0,799.41394
812.71063,755.09155,761.13556,765.9707
796.99634,755.4945,760.32965,758.315
786.1172,756.30035,766.77655,798.60803
786.9231,754.2857,762.74725,814.7253
782.8938,753.47986,762.74725,799.011
761.53845,751.4652,762.74725,773.22345
744.61536,750.65936,760.32965,746.2271
729.304,758.71796,772.01465,783.69965
732.52747,763.95605,778.86444,817.1429
743.00366,757.50916,772.01465,790.9524
740.989,758.71796,768.3883,757.9121
734.94507,760.7326,767.98535,737.76556
728.49817,753.8828,763.95605,757.9121
732.9304,755.09155,765.56775,793.36993
757.50916,753.47986,766.77655,786.52014
756.30035,758.315,770.0,767.1795
745.0183,765.16486,770.80585,753.0769
745.42126,765.56775,771.2088,771.2088
747.8388,774.43225,780.87915,803.8461
753.0769,776.8498,772.8205,791.3553
761.53845,770.40295,757.9121,758.315
770.40295,769.19415,762.3443,738.97437
745.42126,761.53845,777.25275,765.16486
729.304,756.30035,779.2674,796.1905
720.4396,755.89746,770.40295,774.43225
710.7692,751.06226,760.7326,748.6447
715.2015,749.0476,756.7033,734.5421
726.08057,752.27106,761.53845,742.6007
740.18317,757.9121,758.315,779.2674
750.65936,758.315,753.8828,787.326
739.3773,761.53845,766.77655,778.0586
730.9158,762.74725,771.2088,759.5238
745.42126,756.7033,757.1062,755.89746
767.5824,748.6447,750.2564,791.75824
793.7729,752.674,752.27106,800.6227
774.43225,757.9121,755.89746,785.31134
751.4652,755.89746,755.89746,761.13556
796.99634,761.13556,769.59705,801.4286
767.5824,765.56775,758.315,791.3553
772.8205,766.77655,753.47986,777.25275
783.69965,771.2088,757.1062,765.9707
782.0879,768.3883,757.1062,790.14655
762.3443,770.0,757.50916,809.89014
776.8498,759.12085,760.32965,759.5238
780.87915,765.9707,769.19415,810.293
759.12085,775.2381,761.9414,797.8022
790.14655,776.04395,762.3443,776.04395
782.8938,778.0586,756.7033,753.8828
750.65936,774.83514,754.68866,778.86444
764.7619,774.83514,758.71796,802.23444
773.6264,776.4469,755.89746,781.685
776.4469,775.64105,756.30035,756.30035
788.1319,776.4469,762.3443,741.39197
788.1319,782.0879,765.56775,774.43225
816.337,787.72894,761.53845,801.8315
838.9011,790.54944,759.92676,794.9817
820.7692,791.3553,762.3443,770.40295
805.05493,791.75824,751.8681,735.7509
799.011,784.90845,746.2271,758.71796
792.1612,781.28204,752.27106,801.4286
794.57874,785.7143,755.09155,794.9817
789.34064,786.9231,749.0476,770.40295
797.8022,790.14655,744.61536,744.61536
807.8755,796.5934,747.8388,769.59705
796.1905,792.1612,745.82416,803.44324
807.47253,788.1319,744.21246,789.34064
780.07324,798.20514,749.85345,776.4469
748.24176,794.9817,748.6447,750.65936
755.89746,786.1172,753.0769,741.79486
765.56775,788.93774,763.95605,788.5348
766.3736,792.1612,762.3443,805.05493
771.6117,791.3553,754.68866,781.28204
780.87915,793.36993,755.09155,751.06226
779.2674,798.60803,763.1502,748.24176
762.74725,798.20514,765.56775,788.1319
771.2088,799.81683,759.5238,798.20514
797.3993,794.9817,754.68866,783.69965
780.87915,789.7436,745.82416,751.8681
752.27106,799.41394,747.8388,737.3626
741.39197,796.99634,760.32965,788.1319
740.989,803.8461,758.315,774.43225
740.18317,786.52014,752.27106,760.7326
720.84247,779.67035,748.24176,729.707
724.0659,779.2674,748.6447,718.4249
734.94507,780.4762,750.65936,759.12085
734.1392,781.685,751.06226,785.31134
747.03296,781.28204,748.24176,768.7912
738.1685,770.40295,741.79486,738.5714
718.8278,772.01465,735.7509,712.381
716.8132,777.6557,728.49817,736.55676
713.1868,767.5824,723.2601,754.2857
710.7692,756.30035,728.0952,742.1978
718.022,759.12085,738.97437,728.49817
726.08057,762.74725,739.7802,688.60803
736.55676,765.9707,737.76556,713.5897
753.0769,768.7912,738.97437,767.5824
771.2088,760.32965,740.58606,757.50916
765.9707,758.315,743.00366,720.84247
759.92676,761.53845,739.3773,689.41394
770.0,760.7326,737.3626,714.3956
756.7033,756.30035,736.1539,753.8828
775.2381,758.315,735.7509,751.8681
815.12823,766.77655,738.97437,739.7802
830.0366,773.22345,743.8095,722.4542
826.8132,777.25275,751.4652,747.4359
799.41394,763.95605,751.8681,784.90845
788.5348,753.0769,744.21246,761.13556
791.3553,756.7033,742.1978,743.00366
791.3553,757.1062,744.61536,720.4396
806.26373,757.1062,747.4359,723.663
816.337,760.32965,742.1978,764.7619
828.8278,763.1502,750.2564,770.0
809.4872,760.7326,744.21246,741.39197
815.9341,764.7619,753.8828,718.4249
818.7546,767.1795,753.0769,718.4249
803.44324,760.7326,755.09155,751.8681
798.60803,762.74725,755.09155,758.315
796.1905,765.9707,753.8828,726.08057
802.23444,768.7912,756.30035,749.45056
797.3993,767.1795,752.674,724.87177
783.2967,765.56775,759.5238,774.0293
771.6117,763.5531,765.56775,787.72894
790.14655,756.7033,753.8828,733.73627
774.83514,759.92676,756.30035,755.09155
800.2198,758.315,759.92676,741.79486
798.60803,766.77655,762.3443,781.685
782.49084,776.4469,769.59705,803.0403
792.96704,778.0586,768.3883,784.90845
812.3077,776.8498,759.92676,762.3443
791.3553,776.4469,761.13556,760.7326
790.14655,779.2674,772.01465,794.57874
808.2784,777.6557,775.64105,823.5897
805.4579,776.04395,774.43225,811.50183
790.54944,786.9231,778.0586,792.96704
767.5824,791.3553,779.67035,768.3883
766.3736,781.685,769.59705,780.87915
770.0,780.07324,769.59705,807.8755
754.2857,780.07324,774.43225,795.38464
751.06226,776.8498,768.3883,768.7912
757.1062,772.8205,763.95605,740.58606
774.83514,776.4469,770.0,763.95605
786.9231,786.9231,777.6557,803.44324
784.90845,788.5348,780.07324,793.7729
783.2967,787.326,774.83514,772.01465
790.9524,793.36993,778.0586,760.7326
794.57874,795.78754,782.8938,776.8498
796.1905,789.7436,780.87915,805.05493
785.31134,791.75824,780.4762,797.3993
777.6557,794.57874,780.07324,778.46155
773.6264,788.5348,774.0293,751.8681
765.9707,784.10254,768.3883,758.71796
761.9414,781.28204,770.40295,792.1612
758.315,777.25275,772.01465,791.3553
775.2381,785.7143,772.8205,780.4762
791.75824,787.326,777.25275,768.7912
772.8205,776.04395,776.8498,771.2088
739.3773,782.49084,777.25275,797.3993
761.13556,779.2674,773.22345,756.30035
760.32965,783.2967,780.07324,762.3443
772.4176,794.57874,782.8938,805.4579
755.09155,788.5348,773.22345,789.7436
760.7326,797.3993,782.8938,810.293
737.76556,786.1172,771.2088,795.78754
787.72894,784.90845,772.8205,792.96704
781.28204,773.22345,761.13556,794.57874
786.52014,778.86444,764.35895,802.6374
767.1795,781.685,766.3736,774.83514
770.40295,784.5055,767.1795,776.04395
794.9817,787.72894,774.0293,771.6117
774.0293,777.6557,770.40295,770.80585
779.67035,786.9231,777.25275,746.2271
803.44324,784.10254,777.6557,779.2674
812.3077,778.0586,774.43225,807.47253
799.41394,778.86444,763.95605,751.4652
799.011,799.81683,777.6557,796.1905
811.0989,778.46155,767.98535,784.90845
809.0842,800.2198,776.8498,819.15753
819.5604,795.38464,770.0,806.26373
813.5165,792.1612,774.43225,783.2967
797.8022,788.1319,768.3883,749.0476
812.3077,780.07324,777.25275,757.50916
818.3516,773.6264,772.4176,790.54944
826.4103,786.52014,772.4176,823.5897
823.9927,787.326,770.40295,796.1905
842.1245,786.52014,767.98535,780.4762
826.8132,787.72894,765.16486,761.9414
794.17584,784.90845,766.3736,772.4176
782.8938,793.36993,772.4176,809.0842
779.67035,802.23444,772.4176,802.6374
796.5934,795.78754,767.5824,786.1172
808.68134,788.1319,765.56775,762.74725
828.4249,792.1612,774.43225,778.46155
834.4689,799.011,779.2674,820.3663
817.5458,797.3993,778.46155,816.337
823.5897,805.05493,777.25275,780.07324
823.5897,808.2784,782.49084,830.0366
823.1868,807.0696,780.87915,832.4542
829.6337,794.57874,780.87915,793.36993
833.2601,797.3993,776.4469,765.9707
844.94507,807.8755,776.4469,817.1429
855.82416,804.2491,779.2674,790.14655
811.50183,790.54944,774.43225,772.4176
794.57874,789.34064,772.4176,807.8755
820.7692,789.7436,775.2381,814.7253
826.8132,786.9231,767.98535,789.34064
813.91943,791.75824,765.56775,766.77655
827.2161,794.9817,774.43225,778.46155
826.4103,785.31134,780.4762,814.7253
796.1905,774.0293,776.04395,809.89014
797.8022,777.6557,772.4176,795.78754
813.5165,776.4469,767.5824,765.56775
801.02563,770.80585,765.56775,741.79486
804.2491,778.0586,771.2088,787.326
836.4835,788.93774,780.4762,814.7253
836.4835,789.7436,785.31134,800.2198
820.7692,786.9231,782.0879,777.6557
823.9927,782.0879,777.6557,759.5238
813.5165,786.1172,777.25275,790.9524
798.60803,787.72894,774.0293,809.0842
803.8461,781.685,780.07324,795.78754
794.9817,780.4762,786.1172,782.0879
789.7436,788.5348,786.1172,759.5238
793.7729,792.96704,784.5055,776.04395
792.5641,794.57874,778.46155,805.4579
807.8755,799.41394,773.22345,797.8022
804.65204,799.011,776.4469,779.67035
790.14655,792.5641,780.4762,759.92676
801.4286,786.1172,775.64105,778.0586
796.5934,784.90845,775.2381,810.696
784.90845,790.14655,782.0879,803.8461
794.57874,780.07324,771.2088,764.35895
787.326,779.67035,772.4176,811.50183
796.99634,795.78754,780.87915,784.5055
798.60803,790.54944,777.25275,756.30035
773.6264,777.6557,772.8205,813.5165
769.59705,771.2088,765.56775,780.07324
756.30035,767.98535,757.1062,741.39197
768.3883,769.59705,764.7619,756.7033
782.0879,774.43225,780.4762,806.26373
778.46155,779.67035,780.4762,803.0403
780.4762,780.4762,772.4176,778.86444
776.04395,777.25275,764.7619,757.1062
788.93774,778.46155,768.7912,763.1502
789.34064,780.87915,777.25275,800.6227
777.6557,777.25275,773.22345,807.47253
781.685,779.2674,770.40295,794.9817
783.2967,782.8938,771.6117,767.98535
788.1319,774.83514,767.98535,757.50916
788.1319,772.8205,772.4176,801.8315
769.59705,784.90845,774.83514,812.3077
760.32965,794.9817,774.43225,788.1319
766.77655,792.1612,768.3883,759.5238
778.0586,782.49084,761.9414,745.82416
767.98535,773.22345,757.1062,775.2381
743.8095,770.40295,751.8681,789.7436
760.7326,778.86444,763.1502,780.87915
781.685,782.0879,770.80585,759.92676
770.0,780.87915,767.5824,743.8095
792.1612,783.69965,773.22345,779.2674
808.68134,785.7143,776.4469,806.6667
797.8022,790.14655,782.0879,795.38464
815.9341,795.78754,787.326,772.4176
797.3993,791.3553,771.2088,739.7802
779.67035,789.7436,762.3443,761.53845
815.5311,790.9524,770.40295,800.6227
817.5458,795.38464,780.07324,797.3993
829.6337,801.8315,779.67035,733.3333
837.6923,806.26373,782.8938,770.80585
799.81683,801.8315,778.86444,761.9414
797.3993,806.6667,775.64105,798.60803
770.40295,803.44324,772.8205,783.69965
767.5824,803.0403,764.7619,762.3443
776.8498,801.4286,765.56775,738.5714
773.22345,796.5934,766.3736,746.2271
756.30035,789.7436,753.0769,766.3736
744.61536,792.5641,759.92676,763.5531
759.5238,799.81683,770.0,755.09155
768.3883,802.6374,766.3736,730.10986
760.32965,810.293,766.3736,737.3626
790.14655,812.71063,768.7912,786.1172
801.8315,808.68134,772.8205,788.93774
794.17584,810.696,775.64105,766.77655
815.5311,809.89014,769.59705,736.9597
830.84247,808.2784,770.40295,746.63007
842.1245,815.9341,785.31134,795.78754
833.663,815.9341,782.0879,783.69965
833.663,812.3077,775.64105,760.7326
844.94507,805.05493,776.04395,741.39197
840.9158,804.2491,778.46155,734.5421
851.39197,809.4872,782.0879,777.25275
870.32965,809.0842,786.1172,800.2198
880.80585,807.0696,790.14655,787.72894
879.19415,810.293,788.5348,757.1062
863.8828,810.293,786.9231,738.5714
848.5714,809.0842,791.3553,783.2967
841.31866,817.9487,805.05493,816.7399
838.9011,818.7546,809.4872,798.60803
817.5458,811.0989,793.36993,760.32965
806.26373,815.5311,789.7436,744.21246
806.6667,809.4872,794.57874,779.67035
739.3773,801.4286,787.72894,805.4579
675.31134,807.0696,784.5055,786.1172
642.674,805.8608,789.34064,765.16486
597.9487,799.41394,791.3553,746.63007
564.90845,799.011,787.72894,762.74725
559.67035,800.6227,784.90845,794.57874
581.8315,800.2198,789.7436,791.75824
587.47253,800.6227,792.5641,766.77655
566.9231,795.78754,784.10254,733.73627
568.93774,790.14655,779.67035,757.50916
590.696,792.96704,785.31134,808.68134
601.5751,798.20514,790.9524,803.8461
604.7985,801.4286,789.7436,769.19415
615.2747,805.05493,790.9524,742.6007
625.34796,799.81683,795.78754,768.3883
598.3516,802.23444,787.326,788.1319
608.4249,800.6227,778.86444,768.7912
616.08057,798.60803,796.99634,805.05493
645.89746,803.0403,785.31134,759.12085
673.2967,805.05493,792.5641,775.64105
672.0879,794.17584,792.1612,811.50183
662.8205,780.4762,789.34064,811.0989
642.27106,792.5641,802.6374,765.56775
638.24176,786.9231,794.9817,761.9414
657.98535,786.9231,799.41394,796.1905
647.9121,788.5348,792.1612,804.65204
651.13556,788.1319,790.14655,808.2784
648.315,780.4762,785.7143,788.5348
652.3443,778.0586,782.8938,761.9414
646.7033,781.685,781.28204,758.71796
644.68866,783.69965,787.72894,814.7253
640.65936,783.2967,781.685,797.8022
635.0183,785.31134,794.9817,806.6667
636.2271,789.7436,797.8022,772.4176
688.60803,797.3993,796.99634,802.6374
665.2381,792.1612,796.5934,759.92676
679.7436,791.3553,792.1612,813.5165
677.326,780.4762,790.14655,798.60803
673.69965,780.07324,793.7729,768.7912
646.30035,778.46155,791.75824,755.89746
639.85345,776.04395,786.52014,790.54944
640.2564,775.2381,779.2674,798.60803
641.06226,775.2381,776.8498,782.0879
640.2564,776.04395,775.2381,767.5824
650.7326,771.6117,776.8498,752.674
676.9231,767.1795,783.2967,782.49084
667.6557,773.6264,784.10254,807.0696
661.2088,778.0586,779.2674,783.2967
659.59705,775.64105,773.6264,757.1062
669.2674,776.4469,777.6557,740.18317
668.0586,776.04395,784.5055,767.5824
652.3443,775.2381,786.9231,801.4286
645.4945,772.4176,788.1319,786.9231
644.68866,774.83514,785.7143,764.35895
656.77655,780.07324,785.7143,747.8388
667.6557,780.4762,788.5348,772.01465
665.64105,767.98535,786.9231,806.6667
644.2857,759.5238,781.685,786.52014
647.50916,770.0,783.69965,768.7912
682.1612,774.43225,790.54944,751.8681
704.7253,774.43225,793.7729,764.35895
707.1429,776.4469,794.9817,811.9048
713.9927,776.8498,790.14655,787.72894
713.5897,778.46155,793.36993,812.71063
695.8608,776.04395,786.52014,753.8828
686.99634,772.8205,784.5055,752.27106
693.8461,770.0,786.1172,803.44324
691.8315,773.22345,789.34064,809.0842
693.0403,774.83514,791.75824,778.0586
709.9634,782.0879,795.38464,758.315
714.7985,786.1172,801.8315,770.40295
716.0073,785.7143,809.0842,819.9634
713.5897,789.7436,806.26373,824.7985
715.6044,788.5348,794.9817,796.1905
721.6484,778.0586,784.90845,766.3736
735.7509,777.25275,786.52014,764.7619
747.8388,774.43225,788.93774,799.81683
741.79486,771.6117,783.2967,812.3077
733.3333,772.01465,785.31134,797.8022
726.4835,776.04395,791.3553,770.40295
710.3663,781.28204,792.5641,755.09155
726.4835,778.0586,792.96704,790.14655
756.30035,778.0586,796.5934,819.5604
766.3736,780.4762,803.0403,807.47253
772.4176,788.1319,801.4286,784.10254
767.1795,791.3553,793.36993,763.95605
751.8681,784.10254,792.1612,787.326
740.18317,779.2674,796.99634,808.68134
734.5421,782.49084,798.20514,794.17584
755.4945,782.49084,793.36993,769.59705
769.19415,782.0879,793.7729,749.45056
749.45056,778.46155,792.5641,765.56775
751.4652,773.6264,790.14655,796.5934
767.5824,778.46155,794.57874,792.96704
759.92676,772.8205,792.5641,762.3443
735.7509,766.77655,784.90845,741.79486
736.55676,773.22345,786.52014,765.56775
737.76556,778.86444,791.75824,795.78754
738.97437,779.67035,794.9817,793.7729
740.989,781.28204,795.38464,772.01465
756.7033,784.90845,792.5641,742.6007
771.2088,787.326,795.78754,763.5531
753.8828,791.75824,802.23444,809.89014
765.16486,795.38464,805.8608,807.0696
811.9048,798.20514,804.65204,783.2967
810.293,798.60803,803.0403,758.71796
759.5238,784.10254,800.6227,767.98535
740.58606,779.67035,800.2198,803.8461
747.8388,791.3553,803.0403,801.8315
742.6007,791.3553,798.20514,787.72894
748.24176,788.93774,792.96704,767.98535
765.9707,786.52014,790.54944,767.5824
742.1978,784.5055,788.5348,805.05493
713.5897,785.7143,789.34064,809.4872
756.30035,793.36993,803.8461,779.67035
731.7216,789.7436,798.60803,797.8022
766.77655,790.9524,801.8315,778.0586
757.1062,785.7143,803.0403,816.337
749.0476,786.9231,805.05493,822.381
756.30035,796.99634,809.4872,804.65204
761.53845,796.5934,803.44324,774.0293
768.7912,782.8938,796.5934,757.50916
762.74725,778.0586,798.60803,799.81683
752.674,778.86444,791.75824,816.337
763.1502,781.28204,785.7143,795.38464
765.9707,783.69965,794.57874,776.8498
779.2674,780.87915,796.5934,772.01465
792.5641,784.5055,799.41394,805.8608
816.7399,792.96704,803.0403,820.7692
836.08057,794.17584,803.0403,811.9048
829.6337,792.5641,808.2784,801.4286
834.4689,791.75824,811.9048,779.67035
817.1429,793.7729,807.47253,803.8461
799.81683,790.54944,802.23444,832.0513
803.8461,776.4469,801.02563,815.9341
823.5897,769.59705,796.5934,783.69965
840.10986,782.49084,794.57874,758.71796
829.2308,792.1612,801.02563,795.78754
826.0073,792.5641,805.05493,832.4542
835.6777,797.3993,803.44324,814.7253
848.5714,799.81683,800.2198,794.9817
840.10986,790.9524,796.1905,767.5824
831.2454,786.52014,800.2198,778.0586
831.2454,783.69965,808.2784,821.1722
832.8571,784.90845,811.0989,823.1868
834.4689,792.5641,810.696,801.02563
826.8132,796.1905,811.50183,782.8938
818.3516,796.1905,820.3663,801.02563
824.7985,801.4286,820.3663,837.6923
827.2161,806.26373,813.91943,830.0366
805.8608,801.02563,812.3077,809.89014
804.65204,800.6227,812.71063,794.57874
794.9817,800.2198,810.293,799.011
770.80585,795.78754,810.696,831.6484
788.93774,794.9817,817.9487,838.9011
808.2784,800.2198,821.5751,819.9634
769.59705,789.7436,810.696,789.34064
752.27106,773.6264,802.6374,788.1319
759.12085,778.46155,804.2491,821.5751
753.0769,783.69965,799.011,817.5458
742.1978,786.9231,792.5641,793.36993
722.8571,790.14655,797.3993,779.2674
731.31866,790.9524,795.78754,781.28204
758.71796,792.96704,803.8461,844.1392
757.9121,781.685,798.60803,817.1429
765.16486,773.22345,801.8315,795.38464
769.19415,782.0879,805.8608,781.685
742.6007,790.54944,800.2198,822.381
778.0586,785.7143,802.23444,815.12823
782.0879,777.25275,795.78754,833.663
767.1795,774.83514,793.7729,807.8755
757.1062,778.86444,790.54944,786.9231
753.8828,785.7143,791.3553,773.6264
731.7216,790.54944,797.3993,804.65204
729.304,788.5348,797.3993,828.4249
740.58606,783.2967,796.1905,807.8755
743.00366,782.8938,800.2198,797.8022
744.61536,788.1319,798.60803,778.86444
747.03296,793.7729,799.81683,794.9817
753.47986,794.57874,803.8461,828.8278
772.8205,796.5934,799.81683,815.12823
794.9817,794.17584,797.3993,791.3553
788.1319,796.1905,796.5934,795.78754
780.4762,790.14655,800.2198,834.4689
770.80585,794.17584,801.02563,816.7399
773.6264,797.8022,792.1612,787.326
796.5934,800.6227,796.99634,778.0586
803.8461,800.6227,809.4872,798.60803
804.65204,798.60803,803.44324,820.3663
824.7985,804.2491,797.3993,819.5604
848.5714,806.26373,801.02563,810.293
879.19415,805.4579,802.6374,781.28204
794.9817,793.7729,795.38464,768.7912
863.47986,808.68134,799.81683,774.0293
850.58606,815.5311,804.2491,819.15753
868.71796,815.9341,799.81683,826.0073
861.8681,806.6667,784.10254,795.78754
843.3333,796.1905,778.86444,766.3736
821.978,798.60803,780.87915,760.32965
810.293,801.4286,781.28204,799.41394
824.3956,799.41394,778.46155,810.696
833.2601,797.8022,776.8498,796.99634
819.9634,803.0403,770.80585,769.19415
812.71063,809.0842,767.5824,761.9414
812.3077,811.0989,780.07324,807.47253
815.5311,804.65204,779.67035,805.05493
806.26373,803.8461,779.67035,771.2088
813.91943,810.293,785.7143,823.9927
784.10254,797.8022,774.0293,782.49084
792.1612,803.0403,777.25275,751.06226
771.2088,794.17584,775.2381,803.8461
768.7912,792.1612,775.2381,785.31134
777.6557,792.5641,770.0,757.9121
792.96704,794.9817,774.43225,755.09155
797.8022,800.2198,786.52014,796.5934
806.6667,800.2198,787.72894,820.3663
807.0696,799.81683,779.2674,803.8461
814.3223,798.20514,774.83514,780.4762
806.26373,792.1612,780.87915,767.98535
772.4176,792.1612,780.4762,784.90845
786.9231,794.9817,779.67035,807.8755
788.5348,794.17584,780.87915,794.57874
775.2381,796.99634,780.07324,773.6264
775.64105,801.8315,782.8938,764.7619
777.6557,800.6227,779.2674,789.7436
770.80585,801.02563,776.8498,821.1722
743.4066,806.6667,782.49084,817.5458
721.2454,809.4872,792.96704,807.8755
728.49817,808.68134,797.3993,790.9524
734.94507,807.0696,793.7729,803.0403
740.989,808.2784,794.57874,844.94507
750.65936,807.8755,798.20514,844.94507
752.674,805.8608,796.1905,815.9341
758.315,803.0403,790.14655,780.87915
753.8828,804.2491,788.1319,789.7436
739.3773,807.0696,795.78754,835.6777
741.39197,803.44324,799.41394,836.4835
743.8095,800.6227,790.54944,813.5165
730.9158,802.6374,786.9231,782.8938
731.7216,801.4286,785.7143,780.87915
736.9597,800.6227,782.8938,827.619
737.76556,805.4579,790.54944,840.5128
756.7033,809.4872,798.60803,832.8571
763.5531,807.47253,802.23444,813.5165
755.89746,802.6374,799.41394,805.4579
748.6447,803.0403,799.011,841.7216
744.61536,808.2784,800.6227,845.34796
741.39197,800.6227,797.3993,819.5604
717.619,788.93774,792.5641,792.5641
708.3516,790.14655,792.1612,776.04395
725.6777,795.78754,799.81683,817.5458
745.0183,794.17584,798.60803,843.3333
756.7033,792.1612,790.9524,822.381
764.35895,794.17584,787.72894,790.9524
750.65936,792.96704,786.1172,770.40295
765.16486,792.96704,789.34064,806.6667
753.8828,786.1172,785.31134,803.44324
770.80585,792.1612,792.5641,832.0513
777.25275,790.54944,785.7143,776.8498
783.69965,790.54944,786.9231,761.13556
774.0293,786.1172,784.10254,791.75824
770.0,787.326,787.72894,821.1722
784.90845,788.1319,791.3553,804.65204
799.81683,792.96704,794.57874,783.69965
801.4286,797.3993,794.9817,762.74725
807.0696,803.0403,799.81683,793.7729
817.5458,802.6374,803.0403,829.6337
828.4249,792.5641,796.99634,819.15753
831.2454,787.72894,793.7729,800.2198
823.5897,791.75824,793.36993,777.6557
834.0659,790.9524,792.5641,788.5348
844.1392,791.3553,790.54944,823.5897
837.6923,795.38464,793.36993,827.619
824.3956,782.8938,784.5055,802.6374
801.02563,767.5824,777.25275,765.16486
784.10254,773.22345,783.69965,769.59705
794.57874,783.2967,784.10254,814.7253
799.81683,782.49084,786.52014,821.1722
801.02563,780.07324,789.34064,796.99634
788.5348,780.87915,782.49084,815.12823
788.1319,776.4469,780.07324,819.15753
790.54944,784.5055,789.7436,776.4469
803.44324,782.0879,789.7436,772.01465
799.41394,779.2674,786.52014,800.6227
797.3993,784.10254,785.31134,777.6557
775.2381,783.2967,779.2674,764.35895
775.2381,778.46155,781.28204,803.44324
783.2967,773.6264,784.5055,819.15753
778.46155,772.8205,786.1172,796.99634
765.9707,776.4469,786.52014,769.19415
770.40295,782.49084,783.69965,755.09155
776.4469,781.685,786.52014,804.65204
762.74725,778.0586,794.57874,827.2161
753.0769,781.28204,794.17584,800.2198
750.65936,788.1319,791.75824,773.22345
744.21246,787.72894,793.7729,764.35895
738.1685,782.0879,796.99634,805.4579
733.3333,782.0879,803.0403,826.0073
725.6777,789.7436,802.23444,803.0403
721.6484,790.14655,794.9817,773.6264
719.6337,786.1172,787.326,759.12085
727.6923,789.7436,792.1612,801.8315
729.304,779.2674,800.6227,833.2601
760.32965,796.5934,792.5641,770.40295
781.28204,794.17584,795.78754,809.89014
764.7619,786.52014,790.9524,813.1135
778.86444,782.49084,786.9231,799.011
785.31134,780.87915,788.5348,780.87915
767.5824,783.2967,786.52014,789.7436
764.35895,790.9524,787.72894,828.022
746.63007,792.5641,799.011,792.5641
776.04395,793.36993,801.8315,836.08057
730.5128,777.25275,800.2198,817.1429
774.0293,791.75824,787.72894,828.4249
769.59705,788.5348,781.685,804.2491
766.3736,794.17584,788.93774,794.57874
759.92676,792.1612,791.75824,833.2601
763.1502,794.9817,794.9817,831.2454
772.01465,790.54944,784.10254,777.6557
790.9524,787.72894,790.9524,779.67035
781.685,792.5641,790.9524,809.4872
782.8938,790.14655,791.3553,787.326
782.0879,788.5348,792.1612,825.2015
805.8608,788.5348,794.9817,823.5897
815.5311,786.1172,788.1319,805.4579
799.011,779.67035,785.31134,786.52014
786.1172,785.31134,790.14655,786.1172
781.685,787.72894,796.1905,823.9927
784.10254,788.5348,798.20514,832.8571
792.96704,783.69965,790.54944,806.6667
782.49084,783.2967,786.9231,781.685
765.56775,792.5641,786.9231,783.69965
764.35895,793.36993,793.7729,816.337
773.22345,791.3553,799.81683,830.0366
772.01465,789.34064,799.011,815.9341
770.40295,791.75824,796.5934,791.75824
772.4176,796.1905,796.5934,783.69965
768.7912,794.17584,794.57874,820.3663
783.2967,790.54944,798.20514,840.10986
781.28204,786.9231,800.2198,823.5897
764.35895,781.685,788.1319,791.3553
771.6117,786.1172,785.31134,797.8022
762.74725,783.2967,782.49084,812.71063
749.0476,784.10254,785.31134,783.2967
767.5824,783.2967,781.28204,823.9927
749.45056,785.31134,785.31134,761.9414
765.9707,784.10254,784.10254,767.98535
764.35895,787.326,785.31134,793.36993
766.3736,785.7143,783.69965,822.7839
760.7326,782.0879,787.326,814.3223
767.5824,785.7143,792.5641,803.44324
787.326,792.5641,793.36993,788.93774
791.75824,790.9524,783.69965,807.47253
788.1319,787.72894,780.4762,831.6484
793.36993,785.7143,786.52014,833.2601
792.96704,787.326,786.9231,818.3516
772.4176,789.34064,784.90845,783.69965
764.7619,784.90845,784.10254,794.57874
776.4469,786.1172,780.87915,830.84247
767.1795,790.14655,781.685,831.2454
752.674,791.75824,780.87915,809.4872
760.32965,791.75824,775.64105,775.2381
777.25275,788.1319,776.8498,788.5348
780.87915,784.90845,779.67035,829.6337
790.9524,786.9231,773.6264,822.381
785.7143,792.5641,774.83514,803.44324
778.46155,793.7729,778.86444,784.5055
786.1172,786.1172,776.4469,778.86444
791.3553,783.69965,782.0879,814.3223
804.65204,790.9524,791.75824,831.6484
813.91943,798.60803,792.96704,819.15753
811.0989,796.5934,781.28204,789.7436
811.0989,788.93774,775.64105,776.4469
813.5165,791.75824,784.10254,817.1429
814.3223,799.81683,786.1172,834.4689
818.3516,800.2198,780.87915,815.9341
809.89014,800.2198,779.67035,787.326
795.38464,795.38464,779.67035,774.0293
796.1905,786.52014,777.6557,810.293
785.31134,780.4762,772.4176,829.2308
779.2674,784.90845,775.2381,818.3516
787.326,786.1172,782.49084,792.5641
798.20514,787.72894,785.7143,779.2674
804.2491,797.3993,790.14655,815.12823
793.7729,796.99634,789.34064,834.87177
796.1905,791.75824,783.69965,818.3516
804.2491,789.7436,780.07324,792.1612
786.52014,785.7143,783.2967,799.011
796.1905,776.04395,780.87915,830.84247
786.52014,790.9524,780.87915,768.3883
786.52014,784.5055,777.6557,811.0989
789.7436,792.96704,779.67035,783.69965
791.75824,792.96704,783.69965,765.16486
785.7143,796.1905,787.72894,788.5348
774.0293,790.54944,781.685,823.5897
757.9121,784.10254,775.2381,813.5165
752.674,787.72894,778.86444,790.54944
757.1062,787.72894,783.2967,769.59705
755.4945,786.1172,783.2967,782.8938
749.0476,787.72894,797.3993,812.3077
738.5714,781.28204,791.3553,788.5348
748.24176,788.1319,788.1319,817.9487
725.2747,777.6557,784.90845,762.3443
718.4249,773.22345,777.25275,765.9707
723.663,775.64105,775.2381,805.05493
730.9158,776.4469,779.67035,811.0989
729.707,772.8205,777.25275,793.7729
738.1685,780.07324,777.25275,769.19415
736.1539,784.10254,780.4762,773.22345
758.315,787.326,786.52014,818.7546
773.6264,787.326,790.14655,826.4103
743.4066,778.0586,779.67035,801.4286
762.74725,779.2674,780.87915,772.01465
770.80585,780.4762,789.7436,820.7692
797.8022,785.31134,790.14655,808.68134
786.52014,772.8205,796.99634,835.6777
813.1135,806.6667,788.5348,774.43225
821.978,806.6667,789.34064,766.3736
830.0366,798.60803,788.93774,823.9927
747.8388,772.8205,777.25275,772.8205
819.5604,797.3993,789.34064,805.05493
838.0952,799.011,787.72894,807.0696
829.2308,800.2198,786.1172,781.28204
824.7985,801.8315,784.10254,771.2088
833.2601,808.2784,791.3553,807.0696
844.94507,814.7253,793.36993,831.2454
837.28937,816.7399,788.93774,821.978
829.6337,813.91943,792.5641,801.02563
849.7802,802.6374,796.99634,780.07324
850.58606,802.6374,792.1612,810.696
845.7509,809.89014,792.96704,838.9011
849.3773,821.5751,796.99634,823.9927
850.58606,825.6044,793.36993,801.8315
836.08057,820.3663,790.9524,778.0586
824.3956,818.3516,788.93774,829.2308
831.6484,815.5311,782.8938,811.50183
826.4103,814.7253,776.8498,791.75824
817.5458,815.12823,776.8498,770.0
804.2491,811.9048,779.2674,791.75824
800.2198,811.9048,782.49084,834.87177
795.78754,806.6667,779.67035,803.44324
815.12823,817.1429,791.75824,803.44324
795.38464,810.696,782.8938,831.6484
784.5055,803.44324,776.4469,772.01465
783.2967,808.68134,780.07324,780.4762
788.93774,807.47253,783.2967,822.381
780.87915,801.4286,777.25275,819.15753
777.6557,801.8315,771.2088,791.3553
782.49084,805.8608,770.0,763.95605
785.7143,809.0842,775.2381,763.95605
782.8938,807.47253,782.0879,805.4579
781.28204,807.47253,783.2967,807.47253
765.9707,805.4579,776.04395,780.4762
736.9597,807.0696,772.4176,744.21246
734.94507,810.696,778.0586,739.3773
740.58606,803.8461,777.25275,779.67035
729.304,797.3993,770.40295,779.2674
733.3333,805.05493,772.4176,758.315
740.58606,806.6667,774.43225,736.9597
738.1685,803.0403,778.46155,722.4542
745.42126,803.8461,784.90845,762.74725
760.32965,805.4579,783.69965,782.8938
734.94507,805.4579,780.07324,761.53845
706.7399,799.41394,786.9231,735.7509
719.2308,801.02563,794.57874,724.4689
716.4103,804.2491,786.9231,753.8828
701.9048,801.4286,784.5055,776.4469
686.5934,801.8315,788.93774,771.6117
689.011,798.20514,783.2967,740.989
708.7546,801.02563,780.87915,726.08057
710.3663,809.4872,779.2674,768.3883
713.9927,809.89014,781.28204,799.011
719.2308,810.293,788.5348,782.8938
710.3663,810.293,786.52014,750.2564
714.3956,810.696,784.10254,730.9158
731.7216,806.6667,790.14655,769.59705
733.3333,796.1905,792.5641,798.20514
711.5751,793.36993,786.52014,770.40295
696.26373,799.011,784.10254,753.0769
692.23444,804.65204,781.685,740.18317
690.6227,803.44324,778.46155,756.7033
694.65204,798.60803,782.0879,801.02563
679.7436,786.52014,785.31134,804.65204
668.0586,785.7143,788.93774,782.49084
660.40295,787.72894,784.10254,751.4652
660.0,784.5055,779.2674,763.1502
670.87915,789.34064,774.43225,798.20514
681.75824,794.57874,779.2674,805.8608
688.20514,799.41394,791.3553,797.8022
683.7729,799.41394,796.5934,774.83514
686.5934,799.011,797.3993,781.28204
707.1429,796.1905,790.9524,818.3516
728.9011,790.9524,796.5934,828.8278
742.6007,788.1319,803.8461,817.1429
757.9121,793.36993,795.78754,789.7436
764.7619,797.8022,795.38464,786.9231
772.4176,801.4286,801.02563,827.619
772.4176,807.0696,801.02563,834.87177
765.16486,810.293,803.44324,825.2015
766.77655,812.3077,805.05493,808.2784
774.83514,805.4579,801.02563,795.38464
773.6264,802.23444,799.81683,826.8132
763.1502,799.81683,795.78754,836.8865
766.3736,792.5641,786.9231,817.9487
793.36993,794.17584,782.8938,793.7729
813.91943,801.02563,792.5641,789.34064
811.0989,802.23444,798.60803,823.5897
805.4579,808.2784,792.5641,833.663
799.81683,809.0842,790.14655,816.337
802.23444,803.8461,789.34064,798.20514
801.02563,803.8461,788.93774,790.9524
780.87915,801.02563,795.78754,824.3956
777.25275,796.1905,802.23444,845.7509
788.93774,796.1905,802.23444,831.2454
782.8938,796.1905,797.3993,802.23444
786.9231,792.96704,789.34064,772.8205
793.36993,792.5641,785.31134,799.81683
785.7143,790.54944,783.69965,830.4396
788.93774,782.8938,779.2674,818.3516
781.685,783.69965,783.2967,803.0403
779.2674,777.6557,775.64105,784.5055
777.25275,784.10254,777.25275,821.5751
773.22345,780.4762,777.6557,772.8205
772.8205,789.34064,775.2381,812.71063
784.10254,784.90845,774.83514,782.0879
801.8315,781.685,780.07324,767.98535
789.7436,783.2967,788.93774,788.5348
780.4762,782.49084,784.10254,809.0842
798.20514,782.0879,776.04395,801.4286
792.1612,778.86444,774.83514,786.9231
790.14655,778.86444,778.0586,765.9707
790.54944,779.2674,778.0586,770.40295
772.4176,777.25275,783.69965,813.1135
747.8388,778.86444,790.9524,819.5604
747.8388,783.69965,788.93774,799.011
756.7033,787.326,784.5055,774.43225
755.09155,787.326,783.2967,777.25275
756.7033,786.52014,784.5055,814.7253
749.85345,780.87915,788.5348,819.5604
755.09155,786.9231,792.96704,801.8315
765.16486,798.60803,790.14655,773.6264
765.56775,800.6227,788.93774,776.4469
763.1502,799.41394,790.54944,824.3956
766.3736,800.6227,792.1612,840.10986
773.6264,807.47253,792.5641,819.9634
789.34064,805.4579,787.72894,789.34064
778.86444,802.23444,786.1172,786.52014
724.4689,794.17584,790.9524,820.7692
703.1135,798.20514,795.38464,829.6337
729.707,809.4872,794.17584,817.9487
745.42126,801.8315,795.38464,801.4286
723.663,794.9817,803.0403,793.36993
694.65204,796.1905,803.8461,822.7839
699.4872,798.20514,794.9817,835.6777
706.337,794.17584,790.9524,815.5311
712.381,788.93774,794.17584,794.9817
728.0952,798.60803,797.8022,776.04395
722.0513,807.0696,791.75824,799.41394
720.4396,792.96704,781.685,822.7839
725.2747,790.54944,786.52014,808.68134
717.2161,799.41394,794.17584,790.54944
708.7546,795.38464,792.1612,769.19415
703.1135,790.14655,793.36993,798.20514
714.7985,792.96704,788.93774,818.7546
709.5604,790.54944,795.38464,828.4249
717.2161,794.57874,785.31134,809.4872
734.94507,794.9817,789.34064,782.8938
738.5714,795.38464,794.17584,790.54944
757.50916,795.38464,789.34064,817.5458
768.3883,796.99634,787.72894,801.4286
762.3443,790.54944,789.34064,775.64105
758.315,791.3553,794.9817,785.31134
769.59705,792.5641,797.3993,822.381
763.1502,788.1319,792.1612,820.7692
739.3773,792.96704,794.9817,821.978
762.3443,782.49084,787.326,802.23444
779.2674,780.07324,782.8938,774.43225
788.1319,781.685,776.04395,773.6264
787.72894,784.90845,777.25275,807.8755
782.0879,782.0879,780.87915,809.4872
789.34064,775.64105,778.86444,792.96704
779.2674,774.43225,776.04395,764.7619
759.92676,777.25275,775.64105,759.12085
761.9414,782.8938,776.04395,800.2198
744.21246,784.5055,774.0293,808.68134
733.73627,782.8938,775.2381,791.75824
742.1978,786.9231,781.28204,772.01465
736.1539,789.34064,783.69965,765.9707
729.707,788.93774,784.90845,804.2491
730.9158,792.5641,793.7729,824.7985
722.0513,796.99634,800.6227,809.4872
709.9634,791.75824,792.5641,779.67035
711.978,788.93774,790.14655,760.32965
710.3663,792.96704,796.1905,796.5934
714.3956,792.5641,798.60803,817.5458
725.6777,786.52014,792.5641,802.23444
738.5714,787.326,782.49084,778.0586
761.9414,789.34064,786.1172,761.9414
772.4176,784.90845,789.7436,805.05493
756.7033,788.93774,792.96704,828.8278
756.30035,791.75824,794.17584,803.44324
755.89746,789.7436,789.34064,778.46155
744.61536,790.14655,787.326,750.65936
755.4945,793.36993,787.326,778.46155
787.72894,794.17584,788.93774,817.5458
790.14655,788.93774,789.7436,801.02563
776.4469,784.10254,786.1172,772.8205
786.9231,788.1319,782.49084,754.2857
790.14655,792.96704,784.5055,777.6557
802.23444,788.5348,784.90845,809.89014
801.4286,788.1319,784.90845,796.5934
786.1172,791.3553,788.1319,778.46155
794.17584,788.93774,792.5641,757.1062
803.44324,792.1612,799.41394,769.59705
796.99634,796.99634,801.8315,816.337
794.17584,794.57874,796.99634,814.3223
792.5641,792.5641,794.57874,786.52014
788.5348,785.7143,791.75824,756.7033
796.1905,789.34064,794.57874,770.40295
796.1905,788.1319,797.3993,815.12823
794.9817,784.5055,794.9817,794.17584
786.52014,798.60803,796.99634,772.01465
780.07324,796.99634,797.8022,813.5165
793.7729,789.7436,795.78754,772.4176
799.81683,792.5641,797.3993,817.9487
775.2381,798.60803,801.4286,828.8278
772.01465,799.81683,797.8022,803.0403
773.6264,792.5641,786.9231,762.3443
784.10254,790.54944,780.4762,759.92676
796.1905,794.57874,784.10254,801.4286
775.2381,795.38464,787.72894,810.293
758.315,795.38464,785.31134,784.90845
771.6117,798.20514,785.31134,766.77655
784.5055,794.9817,787.72894,774.83514
783.69965,796.99634,785.7143,803.44324
770.0,802.23444,780.87915,806.26373
772.01465,795.78754,778.0586,792.1612
789.7436,787.72894,780.87915,777.6557
772.01465,797.8022,786.1172,786.9231
763.1502,800.6227,785.7143,811.50183
752.674,795.38464,788.1319,804.65204
753.0769,796.1905,789.34064,786.52014
781.685,790.9524,786.9231,767.5824
744.61536,799.41394,787.72894,772.01465
741.39197,790.9524,780.87915,823.5897
755.89746,788.93774,789.34064,821.1722
731.7216,792.5641,780.4762,790.9524
740.989,781.28204,791.3553,791.3553
724.4689,783.69965,786.1172,760.7326
734.1392,788.1319,782.0879,776.04395
741.39197,785.7143,782.49084,808.2784
744.61536,788.1319,786.1172,808.2784
748.24176,790.14655,787.326,789.34064
747.4359,788.5348,780.4762,761.9414
749.45056,788.5348,776.8498,780.4762
750.2564,786.9231,784.10254,820.7692
738.97437,784.90845,785.31134,810.696
738.97437,784.5055,780.87915,788.5348
758.71796,789.34064,775.2381,764.7619
764.35895,788.5348,780.4762,775.2381
746.63007,781.685,789.34064,819.9634
745.82416,782.8938,787.326,821.978
758.71796,792.1612,791.3553,802.23444
761.9414,793.7729,787.72894,771.2088
787.326,795.38464,784.90845,771.2088
803.44324,797.3993,785.31134,813.91943
783.2967,796.99634,784.5055,819.5604
762.3443,790.14655,781.685,800.6227
763.5531,781.28204,776.8498,768.3883
777.6557,786.9231,780.87915,761.13556
788.93774,794.9817,786.1172,810.293
815.5311,796.5934,789.7436,826.0073
821.1722,792.5641,792.5641,802.23444
806.26373,794.57874,792.96704,777.6557
800.2198,803.44324,791.3553,768.7912
824.7985,802.6374,792.5641,829.2308
825.2015,808.2784,793.7729,811.0989
781.28204,800.6227,790.54944,770.0
801.8315,801.4286,788.5348,753.47986
782.49084,796.5934,790.54944,802.6374
809.0842,801.8315,801.8315,820.7692
804.2491,799.41394,792.1612,793.7729
799.81683,801.02563,794.17584,770.40295
807.47253,803.8461,801.4286,802.23444
808.2784,811.0989,793.36993,742.1978
807.8755,816.7399,795.78754,780.07324
807.8755,806.26373,794.9817,818.3516
818.3516,801.4286,795.78754,802.23444
826.4103,800.6227,794.17584,777.6557
828.4249,802.6374,790.9524,750.65936
838.0952,804.65204,788.93774,769.19415
839.304,801.4286,783.69965,799.41394
813.1135,800.2198,783.69965,795.78754
798.20514,801.4286,783.2967,778.0586
819.9634,810.293,788.5348,754.68866
831.2454,816.337,794.9817,780.87915
810.293,811.50183,794.9817,816.337
801.8315,814.3223,793.7729,808.2784
776.8498,799.41394,776.8498,780.07324
771.2088,804.65204,786.52014,810.696
770.80585,807.8755,789.34064,801.8315
790.9524,817.5458,791.75824,792.1612
794.17584,803.8461,786.9231,786.52014
814.7253,802.6374,787.72894,770.40295
777.6557,805.4579,780.4762,770.40295
809.4872,812.71063,787.72894,772.8205
804.65204,816.337,783.69965,809.89014
812.3077,813.5165,786.9231,818.3516
813.5165,810.293,792.5641,805.05493
802.6374,807.8755,787.72894,777.6557
808.68134,805.05493,779.2674,805.05493
807.8755,807.8755,782.49084,769.19415
790.9524,806.26373,783.2967,820.7692
772.01465,808.2784,788.1319,808.68134
774.43225,804.65204,790.14655,780.4762
754.68866,801.8315,786.52014,763.95605
723.663,803.8461,782.0879,799.81683
734.94507,804.2491,785.31134,821.978
757.1062,805.05493,788.1319,816.7399
753.8828,800.2198,784.10254,793.7729
756.30035,795.38464,786.1172,778.86444
765.9707,797.3993,795.78754,812.71063
766.77655,799.41394,792.96704,827.2161
776.4469,800.6227,790.54944,813.5165
784.90845,805.8608,794.17584,804.2491
781.685,812.71063,793.7729,788.5348
778.0586,813.5165,792.96704,817.5458
786.9231,805.05493,788.5348,848.5714
787.72894,801.4286,786.9231,836.08057
778.46155,801.4286,790.9524,821.1722
783.2967,797.8022,792.5641,795.38464
796.5934,799.011,788.1319,799.41394
808.2784,805.8608,786.52014,832.8571
811.50183,810.696,790.9524,833.2601
823.5897,817.1429,796.99634,819.9634
821.5751,820.7692,799.41394,790.14655
809.0842,816.337,790.9524,804.65204
814.7253,809.0842,784.5055,844.94507
831.2454,808.2784,792.5641,834.0659
826.8132,810.696,797.8022,815.5311
800.2198,807.47253,793.36993,791.75824
801.02563,807.47253,793.7729,799.011
804.2491,810.293,794.17584,831.6484
792.96704,800.2198,788.1319,821.978
779.2674,794.57874,782.8938,796.5934
774.0293,804.2491,784.10254,770.80585
780.87915,799.81683,788.1319,775.64105
776.8498,797.3993,788.93774,813.5165
776.04395,800.6227,790.9524,823.1868
782.49084,799.41394,793.7729,814.3223
781.28204,799.011,795.38464,788.5348
785.31134,797.8022,791.75824,808.2784
774.83514,798.60803,794.17584,776.8498
794.9817,799.41394,791.75824,820.7692
785.7143,796.99634,788.5348,809.0842
786.52014,796.5934,796.5934,787.72894
788.5348,796.5934,799.41394,776.8498
779.2674,792.1612,792.5641,806.6667
772.8205,794.17584,789.34064,813.5165
789.7436,795.38464,784.10254,796.99634
798.60803,793.36993,785.7143,781.28204
788.1319,801.4286,793.7729,778.86444
789.34064,809.89014,801.4286,819.5604
782.0879,802.23444,800.6227,833.2601
777.6557,792.5641,794.57874,812.71063
776.4469,796.5934,792.5641,784.10254
780.4762,805.05493,793.36993,772.01465
785.31134,810.293,796.1905,809.89014
803.8461,814.7253,795.78754,836.4835
832.0513,814.3223,797.8022,827.619
805.8608,804.65204,793.7729,801.02563
776.4469,797.3993,787.326,772.8205
778.46155,798.60803,789.7436,807.47253
783.69965,794.9817,792.5641,838.49817
784.5055,787.72894,793.36993,813.91943
782.49084,789.7436,793.36993,794.57874
787.326,794.9817,792.5641,774.0293
789.7436,799.41394,792.5641,782.0879
787.326,794.17584,788.5348,807.47253
789.34064,787.72894,784.5055,801.4286
796.5934,794.17584,788.93774,786.52014
797.8022,799.41394,798.20514,775.64105
799.41394,801.02563,806.26373,790.14655
807.47253,799.81683,807.47253,820.3663
792.1612,795.38464,805.05493,825.2015
774.0293,791.3553,795.78754,805.4579
784.5055,788.5348,788.5348,772.4176
785.31134,782.0879,782.8938,777.25275
777.25275,780.07324,783.69965,817.5458
784.10254,777.25275,785.31134,814.3223
799.41394,774.0293,784.10254,793.7729
805.4579,786.9231,784.90845,776.04395
811.0989,791.75824,780.87915,778.86444
813.1135,789.34064,782.8938,817.5458
807.8755,792.5641,787.72894,826.0073
814.3223,791.75824,787.326,806.26373
822.381,790.14655,789.7436,779.67035
822.381,786.52014,793.7729,777.6557
813.5165,780.4762,791.3553,811.0989
807.0696,780.87915,788.93774,819.9634
803.44324,789.34064,790.14655,802.6374
786.52014,784.5055,786.1172,776.4469
782.0879,779.2674,782.8938,766.3736
799.41394,785.31134,788.93774,806.26373
794.17584,788.1319,790.9524,821.1722
775.2381,792.1612,789.7436,802.23444
802.6374,798.60803,792.5641,776.4469
784.10254,795.78754,790.14655,780.87915
786.9231,797.8022,794.9817,814.7253
791.75824,801.8315,797.3993,821.5751
766.77655,795.78754,794.57874,834.0659
820.7692,796.99634,794.57874,798.20514
806.26373,786.1172,789.34064,774.0293
786.1172,784.5055,786.9231,796.5934
778.46155,784.90845,788.1319,828.8278
751.06226,788.1319,790.14655,814.7253
738.1685,789.7436,795.38464,790.14655
756.7033,790.54944,801.8315,770.0
769.59705,788.93774,798.20514,788.5348
768.3883,788.1319,797.3993,821.5751
776.04395,789.7436,798.60803,811.0989
781.685,789.34064,795.78754,788.1319
801.8315,787.326,798.20514,764.35895
837.28937,783.69965,798.20514,784.90845
823.5897,784.5055,794.9817,819.5604
789.34064,788.1319,790.54944,808.68134
783.2967,790.14655,786.52014,782.49084
780.07324,793.36993,789.34064,759.92676
786.1172,790.9524,790.9524,775.2381
809.0842,787.72894,790.9524,815.5311
815.12823,790.14655,790.14655,811.50183
806.6667,790.54944,786.9231,767.98535
823.5897,792.1612,790.14655,789.7436
803.44324,778.86444,785.7143,803.44324
792.96704,781.685,783.69965,767.1795
787.72894,784.5055,784.5055,809.0842
807.47253,782.0879,785.31134,788.1319
810.696,777.6557,784.10254,755.89746
772.8205,783.69965,782.49084,747.4359
783.2967,788.1319,786.1172,793.7729
800.2198,783.69965,789.7436,812.3077
803.44324,781.685,794.57874,799.81683
788.93774,778.86444,796.1905,774.43225
775.64105,781.685,796.1905,763.95605
776.4469,783.69965,796.1905,809.0842
781.685,786.9231,792.5641,825.6044
784.5055,792.5641,794.17584,807.47253
790.14655,791.75824,794.17584,781.685
812.3077,789.34064,789.7436,767.1795
816.337,788.93774,790.14655,804.65204
830.84247,788.1319,791.75824,821.1722
835.2747,790.14655,794.57874,809.4872
829.6337,792.5641,790.54944,793.7729
830.0366,790.9524,780.87915,774.43225
828.4249,788.93774,778.86444,806.26373
816.337,786.9231,775.2381,827.2161
806.6667,788.5348,772.4176,802.6374
796.1905,792.5641,776.4469,789.34064
783.2967,790.54944,774.83514,765.56775
778.0586,784.5055,773.22345,786.1172
771.6117,786.1172,776.4469,820.3663
785.31134,785.31134,772.8205,807.47253
797.3993,783.2967,765.9707,783.2967
801.02563,780.07324,759.92676,755.09155
796.1905,776.8498,758.315,782.0879
770.0,778.86444,763.5531,820.7692
760.7326,776.8498,762.3443,816.337
783.69965,780.07324,759.92676,790.14655
800.2198,787.72894,759.12085,765.16486
789.7436,786.52014,759.12085,782.49084
779.2674,782.0879,768.7912,818.7546
793.36993,777.25275,770.80585,815.5311
788.93774,776.04395,765.9707,799.41394
832.8571,778.86444,762.3443,767.5824
794.57874,776.4469,762.3443,773.22345
860.65936,782.49084,761.13556,810.293
874.7619,782.8938,757.1062,810.293
866.7033,783.2967,758.315,786.1172
843.73627,782.0879,758.71796,758.71796
840.10986,782.49084,758.71796,755.89746
848.97437,786.9231,769.19415,807.8755
813.91943,783.2967,771.2088,789.34064
864.2857,787.72894,765.16486,805.8608
828.022,781.28204,770.40295,774.0293
842.52747,775.64105,766.77655,762.74725
853.4066,773.22345,770.0,796.1905
866.30035,775.2381,769.19415,809.89014
882.8205,778.0586,763.95605,790.9524
890.07324,778.46155,765.16486,770.0
882.8205,776.4469,772.01465,765.16486
840.9158,783.2967,767.1795,791.3553
827.2161,785.31134,770.0,768.3883
825.6044,786.9231,766.77655,755.4945
817.1429,788.1319,766.3736,790.9524
850.18317,773.6264,765.56775,811.9048
863.0769,770.0,770.0,798.60803
799.011,789.34064,768.7912,824.3956
795.78754,784.5055,773.22345,813.1135
798.20514,778.0586,779.67035,788.1319
793.36993,783.69965,778.0586,766.3736
800.6227,790.14655,777.6557,796.99634
800.2198,792.5641,775.64105,826.0073
791.3553,787.326,774.0293,803.44324
839.707,786.9231,773.6264,769.19415
825.2015,779.67035,776.4469,789.7436
816.7399,786.1172,772.4176,783.2967
830.84247,783.69965,777.6557,827.619
833.663,784.5055,773.6264,810.696
823.9927,779.67035,766.3736,779.67035
825.2015,786.9231,770.40295,761.9414
831.2454,791.3553,775.64105,776.04395
832.4542,788.5348,773.22345,807.47253
808.2784,788.5348,774.43225,809.0842
811.50183,794.57874,780.4762,792.96704
823.9927,791.3553,779.67035,773.22345
828.022,785.7143,781.28204,782.49084
828.4249,794.9817,793.36993,829.6337
823.9927,793.36993,788.1319,819.9634
844.5421,790.54944,791.75824,810.293
857.8388,795.38464,788.5348,785.7143
853.8095,798.20514,784.5055,784.5055
861.06226,798.20514,784.10254,824.7985
872.74725,796.5934,786.1172,832.0513
843.73627,790.54944,784.90845,805.4579
834.4689,788.93774,787.72894,779.2674
844.5421,788.93774,788.93774,781.28204
861.8681,791.75824,785.7143,818.3516
867.1062,792.5641,782.0879,823.1868
866.30035,796.1905,785.31134,811.50183
856.2271,799.41394,788.5348,784.5055
840.5128,795.78754,786.52014,761.13556
837.6923,792.96704,781.685,796.5934
858.24176,803.0403,786.9231,828.8278
869.12085,816.337,794.17584,823.1868
865.89746,802.23444,792.5641,777.25275
867.1062,797.3993,792.5641,806.6667
854.61536,810.696,793.36993,792.1612
848.5714,800.2198,788.93774,818.7546
859.45056,810.293,786.52014,810.293
850.989,807.8755,784.10254,792.1612
833.663,801.02563,786.9231,769.59705
855.42126,805.4579,790.14655,794.57874
865.09155,817.9487,785.7143,823.5897
856.63007,819.9634,778.46155,811.0989
871.13556,819.15753,784.10254,788.93774
894.90845,819.9634,792.1612,771.2088
886.04395,811.9048,785.31134,788.93774
877.5824,806.6667,783.69965,817.9487
859.85345,805.05493,786.52014,807.8755
846.55676,803.8461,784.90845,785.31134
845.34796,802.6374,779.67035,759.92676
834.87177,805.8608,786.1172,819.9634
830.84247,809.0842,786.52014,809.89014
812.3077,808.2784,781.28204,788.1319
817.5458,811.9048,784.10254,761.53845
821.5751,814.7253,787.72894,780.07324
817.9487,813.5165,788.5348,823.1868
834.87177,813.5165,789.7436,819.5604
834.87177,817.9487,788.93774,805.05493
856.2271,816.337,784.10254,775.2381
836.08057,802.23444,780.07324,781.685
866.30035,810.293,779.67035,768.3883
845.7509,813.91943,779.67035,811.50183
836.4835,811.0989,780.07324,817.9487
819.9634,805.4579,777.25275,792.5641
811.0989,801.4286,772.4176,763.5531
813.91943,801.8315,774.43225,759.92676
803.44324,801.02563,774.0293,801.8315
795.38464,799.81683,768.3883,812.3077
804.65204,801.02563,769.19415,797.8022
829.6337,807.0696,775.2381,774.83514
836.8865,814.3223,774.83514,760.7326
823.9927,810.293,772.8205,810.293
815.9341,804.2491,781.685,826.4103
809.89014,805.8608,788.93774,797.3993
830.4396,814.7253,788.5348,771.2088
830.0366,813.5165,782.0879,752.674
784.90845,809.0842,779.2674,790.14655
760.7326,805.8608,780.4762,813.5165
763.5531,803.0403,778.0586,790.9524
765.56775,799.41394,771.6117,755.4945
773.22345,797.3993,771.2088,743.4066
778.46155,801.8315,780.87915,787.326
755.4945,799.81683,784.90845,813.1135
752.674,793.36993,784.90845,797.3993
779.67035,800.6227,786.52014,776.04395
780.07324,805.8608,782.0879,753.47986
770.40295,803.8461,778.0586,772.4176
766.77655,801.02563,782.49084,799.011
776.8498,801.02563,784.10254,795.78754
796.1905,807.47253,784.5055,782.8938
770.80585,801.4286,782.8938,752.27106
764.35895,794.17584,780.07324,760.7326
775.2381,799.011,779.67035,797.8022
789.34064,804.65204,785.7143,798.60803
817.5458,804.2491,784.5055,778.0586
820.7692,800.6227,781.28204,752.674
821.1722,794.17584,778.46155,770.40295
799.81683,794.57874,782.49084,809.0842
824.7985,791.75824,780.07324,812.71063
801.8315,801.8315,787.326,768.3883
784.10254,796.99634,782.8938,788.1319
801.02563,796.5934,788.1319,786.1172
785.31134,791.75824,783.2967,815.5311
768.3883,792.5641,779.2674,804.2491
784.5055,787.326,774.0293,788.1319
804.65204,784.5055,768.3883,760.7326
781.685,790.9524,772.01465,756.7033
764.7619,799.011,780.87915,804.2491
765.56775,794.57874,781.685,819.9634
769.59705,789.34064,780.87915,794.57874
768.3883,788.5348,778.86444,761.53845
781.685,794.57874,784.90845,766.3736
781.28204,801.4286,791.75824,807.47253
767.98535,799.011,788.93774,816.337
776.4469,797.8022,786.52014,805.4579
776.04395,799.011,788.93774,781.28204
784.90845,796.5934,790.14655,765.56775
799.41394,796.99634,790.9524,800.6227
822.7839,794.9817,790.54944,818.3516
830.0366,793.36993,792.1612,807.47253
818.3516,795.78754,796.5934,788.5348
813.91943,790.54944,790.14655,756.7033
814.3223,796.5934,786.9231,822.381
836.8865,794.57874,785.7143,809.0842
817.5458,790.9524,786.1172,788.1319
832.4542,790.54944,788.5348,784.5055
786.52014,786.1172,792.5641,758.315
790.54944,793.7729,796.1905,786.52014
809.0842,805.05493,799.81683,818.7546
809.4872,799.81683,795.78754,803.0403
798.20514,800.6227,797.3993,786.1172
797.3993,805.8608,801.8315,768.3883
802.23444,797.3993,806.26373,796.5934
789.7436,798.20514,812.3077,832.0513
790.54944,811.9048,809.4872,819.15753
802.6374,815.5311,801.4286,799.41394
786.52014,814.3223,794.57874,776.8498
777.6557,807.8755,793.7729,784.5055
779.2674,796.99634,801.8315,824.3956
799.41394,794.9817,803.0403,821.1722
811.0989,795.78754,798.20514,794.17584
790.9524,790.9524,792.5641,771.6117
790.14655,789.7436,792.5641,778.86444
804.2491,793.7729,799.011,817.9487
797.3993,790.54944,794.57874,819.5604
789.7436,786.52014,784.90845,795.38464
803.0403,788.93774,782.0879,765.9707
812.3077,793.7729,785.7143,807.8755
809.89014,794.57874,787.326,767.98535
805.4579,791.3553,786.9231,818.3516
811.0989,790.54944,796.5934,805.05493
809.4872,788.93774,798.60803,772.01465
800.6227,794.17584,796.5934,770.40295
812.3077,794.57874,796.5934,817.9487
823.5897,796.99634,797.8022,813.1135
803.0403,793.36993,798.20514,829.2308
854.21246,797.3993,795.38464,780.87915
838.0952,799.011,796.1905,767.98535
821.1722,803.0403,797.8022,807.8755
805.8608,799.81683,800.6227,823.5897
794.17584,794.17584,804.65204,809.0842
788.1319,791.75824,804.65204,788.93774
799.41394,791.75824,801.8315,774.83514
792.96704,786.1172,797.8022,803.0403
788.5348,788.93774,797.8022,827.619
811.50183,800.2198,803.44324,814.3223
807.0696,801.02563,800.2198,788.5348
776.04395,794.17584,790.14655,755.4945
770.40295,789.7436,791.75824,780.4762
779.2674,791.75824,796.1905,818.3516
765.56775,793.7729,797.8022,807.47253
767.5824,794.17584,792.96704,784.5055
784.5055,798.60803,786.1172,759.12085
792.96704,805.4579,796.1905,790.14655
827.2161,812.3077,807.8755,835.2747
854.21246,805.8608,801.8315,823.5897
857.4359,799.41394,794.9817,801.4286
877.1795,799.81683,798.60803,779.67035
876.3736,798.20514,804.2491,790.14655
871.13556,799.41394,805.05493,821.978
883.6264,802.6374,803.44324,820.7692
876.3736,800.2198,797.3993,799.81683
857.4359,795.78754,795.78754,770.80585
851.39197,794.57874,796.1905,778.46155
859.0476,798.60803,799.011,815.5311
847.76556,799.011,801.02563,819.15753
836.4835,794.57874,801.8315,800.2198
840.10986,794.17584,799.011,773.6264
844.94507,798.60803,794.17584,780.07324
840.10986,807.8755,802.23444,826.8132
820.7692,807.47253,808.2784,833.2601
820.3663,802.23444,803.0403,804.2491
821.1722,799.41394,798.60803,772.4176
817.5458,800.2198,801.02563,779.2674
835.6777,797.3993,801.4286,824.7985
835.6777,795.38464,800.6227,831.6484
810.293,798.20514,802.23444,813.5165
809.89014,792.1612,799.011,788.5348
788.5348,788.5348,797.3993,770.0
755.09155,792.96704,793.36993,803.44324
757.9121,800.6227,792.96704,827.2161
755.4945,799.81683,791.3553,807.47253
752.27106,787.326,778.86444,766.3736
770.0,783.2967,774.0293,753.0769
778.86444,778.46155,779.2674,787.72894
787.326,777.25275,780.07324,795.78754
786.52014,774.0293,784.90845,811.0989
793.36993,776.4469,782.0879,755.4945
788.93774,778.0586,777.25275,768.7912
801.4286,774.83514,781.28204,809.89014
791.75824,776.04395,782.8938,790.9524
831.2454,785.7143,782.49084,782.49084
826.4103,780.07324,779.2674,793.36993
800.6227,776.4469,776.04395,751.4652
784.10254,769.59705,770.0,762.74725
787.326,772.01465,773.6264,803.44324
785.31134,774.0293,772.8205,792.96704
783.2967,772.8205,769.59705,770.40295
772.01465,766.77655,770.0,751.4652
769.19415,773.22345,776.4469,770.40295
793.36993,780.07324,777.6557,800.6227
796.5934,774.43225,772.4176,787.326
779.2674,777.25275,772.8205,769.19415
784.90845,784.90845,776.4469,755.09155
809.0842,782.49084,778.86444,775.64105
811.9048,783.2967,780.07324,807.0696
805.05493,788.1319,781.685,805.8608
828.022,789.7436,777.6557,790.54944
813.5165,789.7436,774.0293,758.315
785.7143,782.49084,776.04395,765.56775
788.5348,782.49084,781.685,809.89014
778.86444,786.52014,787.72894,820.3663
768.3883,780.4762,781.28204,798.60803
769.59705,786.1172,776.8498,767.1795
776.4469,796.99634,783.69965,769.59705
783.2967,801.8315,794.57874,813.91943
786.9231,801.8315,797.3993,822.7839
790.9524,790.14655,792.96704,803.8461
784.5055,781.28204,791.75824,778.46155
773.6264,787.72894,793.36993,767.98535
763.1502,791.3553,794.9817,807.47253
750.2564,789.7436,793.7729,824.3956
761.13556,788.93774,787.72894,810.293
774.43225,792.5641,786.1172,780.4762
777.6557,798.60803,785.7143,760.7326
788.5348,795.78754,782.8938,804.65204
792.96704,792.5641,784.10254,825.2015
797.8022,798.20514,791.75824,815.9341
816.337,795.38464,791.3553,794.9817
820.7692,790.9524,784.90845,767.98535
816.7399,796.1905,789.34064,798.20514
805.8608,797.3993,792.1612,823.1868
816.337,791.3553,783.2967,782.0879
808.2784,789.34064,784.10254,761.9414
796.5934,792.5641,786.1172,804.2491
804.2491,787.72894,785.7143,788.93774
821.1722,792.1612,788.93774,820.7692
809.4872,794.57874,792.96704,816.7399
804.65204,794.17584,792.5641,803.8461
783.2967,790.54944,782.8938,767.1795
763.5531,788.93774,780.87915,777.25275
764.35895,782.49084,782.0879,811.0989
749.45056,776.8498,780.4762,798.60803
745.82416,772.8205,777.25275,774.0293
762.3443,778.46155,778.46155,756.7033
759.92676,781.28204,780.4762,776.4469
763.5531,777.25275,777.25275,811.0989
751.8681,781.685,775.2381,810.293
724.0659,783.69965,776.8498,794.57874
713.5897,782.8938,782.49084,766.77655
725.6777,779.67035,785.31134,774.43225
739.7802,771.6117,779.2674,811.50183
736.9597,769.59705,773.22345,803.44324
743.8095,779.67035,773.6264,782.8938
756.30035,792.5641,779.2674,761.53845
770.0,792.5641,780.4762,774.83514
778.86444,784.10254,778.46155,814.7253
787.326,779.67035,779.2674,806.26373
797.3993,774.43225,783.69965,791.75824
838.49817,799.011,790.14655,763.5531
819.5604,780.87915,786.52014,770.40295
826.0073,796.99634,788.5348,799.81683
809.89014,789.7436,782.8938,812.71063
801.8315,787.326,781.28204,794.9817
788.93774,788.93774,790.9524,772.8205
777.25275,791.75824,801.4286,773.6264
778.86444,786.9231,799.41394,808.68134
782.49084,786.9231,794.57874,808.68134
792.96704,792.1612,793.36993,801.4286
816.7399,797.3993,793.36993,790.54944
810.293,796.99634,792.1612,765.56775
782.49084,793.36993,794.17584,792.5641
797.3993,793.36993,798.60803,821.1722
812.71063,790.54944,792.96704,809.0842
809.89014,793.36993,784.10254,771.6117
792.96704,790.9524,780.87915,732.9304
785.31134,791.75824,780.87915,767.1795
782.8938,798.60803,783.2967,805.8608
774.0293,793.36993,782.0879,792.5641
788.1319,796.1905,786.52014,774.83514
793.7729,807.0696,786.52014,757.1062
799.011,809.4872,780.4762,780.87915
788.5348,805.4579,782.49084,813.5165
766.3736,802.6374,788.93774,801.4286
754.68866,798.60803,792.5641,774.43225
763.5531,799.41394,793.36993,752.27106
769.59705,794.9817,789.34064,767.5824
761.9414,792.96704,786.9231,802.23444
783.2967,803.44324,792.1612,802.23444
786.9231,807.0696,793.36993,780.4762
763.5531,809.89014,794.57874,758.315
763.95605,813.91943,799.011,774.83514
780.07324,815.12823,802.6374,815.12823
774.83514,815.5311,798.60803,794.57874
802.6374,821.5751,803.0403,778.86444
812.3077,821.978,806.26373,769.59705
802.6374,813.1135,806.26373,805.8608
797.3993,805.4579,803.44324,816.7399
791.3553,803.0403,797.8022,793.7729
772.8205,809.4872,792.96704,762.3443
785.31134,815.5311,788.93774,761.9414
801.8315,814.3223,791.3553,809.4872
800.6227,805.8608,795.78754,820.3663
771.6117,815.12823,799.81683,808.68134
787.72894,796.5934,792.96704,797.3993
761.13556,796.99634,787.326,758.315
760.32965,804.65204,784.90845,748.24176
771.6117,807.8755,786.52014,801.4286
764.7619,796.99634,785.31134,820.3663
753.0769,793.7729,786.52014,799.41394
750.65936,799.81683,793.36993,773.22345
753.8828,807.47253,795.78754,758.315
772.4176,810.293,789.7436,792.5641
791.3553,799.41394,789.34064,797.8022
795.78754,804.65204,788.1319,814.7253
790.9524,802.6374,785.7143,773.6264
810.696,811.50183,787.326,760.7326
813.91943,811.50183,790.54944,795.38464
811.9048,801.8315,790.9524,814.7253
810.293,801.8315,790.54944,796.1905
812.71063,804.65204,788.93774,776.4469
810.696,802.23444,785.7143,760.32965
821.5751,807.0696,791.3553,796.5934
832.4542,812.71063,802.6374,834.4689
809.4872,808.2784,797.8022,817.5458
792.1612,811.50183,792.96704,791.75824
790.14655,811.50183,788.1319,760.7326
801.02563,808.68134,787.326,780.07324
818.7546,812.3077,794.17584,822.381
810.696,812.3077,793.7729,817.5458
781.685,807.0696,787.326,788.93774
760.32965,801.4286,779.2674,758.71796
756.7033,798.60803,778.0586,770.80585
753.0769,796.1905,780.4762,804.2491
753.0769,793.36993,786.1172,811.50183
748.24176,790.14655,782.8938,787.326
745.0183,794.57874,777.25275,755.09155
773.22345,797.8022,782.49084,770.40295
780.87915,798.20514,784.10254,815.12823
774.83514,789.7436,782.49084,814.7253
772.4176,784.90845,781.28204,788.1319
806.6667,795.38464,784.5055,767.98535
809.4872,790.14655,783.69965,815.5311
811.9048,796.1905,788.93774,804.65204
801.02563,796.1905,784.90845,776.4469
799.41394,793.7729,784.5055,761.13556
780.87915,791.75824,782.8938,761.13556
811.50183,794.57874,784.10254,796.5934
815.9341,796.1905,789.34064,809.4872
830.84247,796.5934,785.7143,826.4103
803.0403,792.1612,788.1319,774.43225
812.71063,790.14655,781.685,807.8755
808.2784,801.4286,793.7729,764.35895
803.44324,804.65204,797.3993,803.44324
804.2491,797.8022,791.75824,805.8608
789.7436,791.75824,789.7436,781.28204
788.1319,792.5641,792.5641,767.1795
801.8315,791.3553,790.9524,801.8315
822.7839,786.9231,787.72894,819.15753
835.6777,790.9524,784.5055,801.02563
804.65204,799.81683,795.78754,826.0073
826.4103,793.36993,788.1319,781.685
810.293,781.28204,783.69965,754.2857
817.1429,783.69965,779.67035,781.685
813.5165,789.34064,780.87915,806.6667
823.5897,789.34064,775.64105,786.52014
856.63007,789.34064,778.46155,770.0
847.76556,783.2967,784.90845,759.12085
834.4689,787.326,790.54944,783.2967
854.61536,793.36993,790.54944,815.9341
881.2088,781.685,780.4762,807.0696
882.8205,780.87915,784.10254,786.52014
863.47986,785.7143,792.1612,763.5531
845.7509,786.52014,794.57874,780.4762
823.5897,787.326,796.1905,818.3516
805.8608,784.90845,795.38464,815.9341
812.71063,790.14655,795.78754,800.6227
808.68134,781.685,789.7436,762.3443
811.9048,771.2088,785.31134,767.1795
820.7692,777.6557,788.5348,813.1135
815.5311,782.49084,790.54944,818.7546
805.8608,782.0879,791.3553,799.41394
816.337,783.2967,788.93774,772.4176
831.2454,784.90845,788.1319,790.14655
825.6044,792.1612,797.3993,836.8865
832.0513,791.75824,798.60803,833.2601
835.2747,786.52014,787.326,807.47253
817.1429,790.54944,787.326,779.2674
790.54944,792.1612,787.72894,764.35895
780.87915,790.14655,783.69965,796.99634
783.2967,788.93774,781.685,809.89014
795.38464,792.96704,786.1172,794.9817
792.96704,792.1612,785.7143,760.7326
774.83514,790.54944,782.0879,753.8828
776.4469,790.14655,784.5055,798.20514
803.0403,789.34064,788.1319,817.5458
804.65204,785.31134,788.5348,809.0842
769.59705,780.4762,782.0879,779.2674
775.64105,788.93774,783.69965,759.5238
805.8608,795.78754,788.1319,800.6227
767.5824,799.81683,797.3993,809.4872
768.7912,792.96704,790.9524,780.87915
754.68866,787.72894,785.31134,757.9121
757.1062,787.72894,790.14655,790.54944
785.7143,798.60803,792.5641,828.022
743.00366,787.72894,792.5641,818.7546
716.8132,786.9231,789.7436,797.3993
739.7802,788.1319,789.34064,773.6264
750.65936,790.14655,784.10254,757.9121
748.6447,788.5348,783.69965,782.0879
760.32965,790.14655,787.72894,818.7546
769.59705,789.7436,789.34064,813.5165
766.3736,784.5055,784.5055,785.7143
756.7033,780.07324,778.0586,755.89746
770.0,783.2967,782.8938,773.6264
776.4469,783.69965,787.72894,809.0842
774.0293,778.86444,787.326,803.0403
787.72894,784.5055,792.5641,786.1172
794.17584,790.14655,791.75824,766.77655
798.60803,791.3553,790.54944,784.5055
798.60803,788.1319,794.9817,822.381
785.31134,784.90845,796.99634,821.978
782.49084,789.7436,797.8022,808.68134
795.38464,795.78754,796.5934,778.86444
802.6374,803.0403,795.78754,776.04395
800.2198,802.23444,792.5641,814.7253
803.44324,797.3993,794.17584,819.15753
810.696,796.99634,796.5934,804.2491
802.6374,796.1905,788.1319,770.80585
814.7253,799.81683,790.54944,766.3736
831.2454,804.65204,799.41394,819.5604
819.15753,794.9817,793.36993,826.0073
793.7729,789.7436,788.93774,798.60803
789.34064,794.9817,791.3553,775.2381
788.93774,798.20514,791.3553,772.01465
771.6117,793.7729,791.75824,811.50183
777.6557,791.75824,790.9524,828.8278
800.6227,794.9817,790.14655,808.68134
791.3553,793.7729,791.3553,781.28204
784.5055,794.17584,790.14655,762.74725
801.02563,799.011,787.72894,794.17584
807.47253,801.8315,791.3553,826.8132
798.60803,797.8022,794.57874,815.12823
787.72894,787.326,795.38464,778.86444
794.57874,781.28204,794.9817,753.47986
809.0842,780.07324,795.78754,791.75824
816.337,785.31134,799.41394,823.9927
834.4689,793.36993,799.41394,814.3223
846.9597,792.96704,793.7729,789.7436
848.97437,789.7436,792.96704,767.98535
850.18317,794.57874,792.1612,790.14655
847.76556,799.81683,794.9817,823.1868
850.58606,797.3993,796.5934,825.2015
843.73627,789.34064,791.75824,796.5934
833.2601,786.9231,793.7729,767.1795
823.9927,787.72894,796.1905,791.3553
814.3223,786.9231,793.7729,833.663
819.5604,784.5055,794.9817,828.022
817.5458,782.49084,793.7729,797.8022
795.38464,779.2674,789.7436,765.9707
792.5641,784.10254,791.3553,773.22345
800.6227,796.99634,794.17584,821.5751
801.8315,794.57874,788.5348,819.5604
786.52014,787.326,786.9231,792.96704
759.12085,786.52014,790.9524,769.19415
767.98535,786.52014,794.17584,776.04395
774.83514,784.5055,793.36993,815.9341
765.56775,784.10254,789.7436,814.3223
780.87915,781.685,787.326,790.14655
802.23444,782.49084,782.49084,754.2857
792.5641,782.49084,777.25275,747.4359
796.99634,780.4762,782.49084,794.17584
797.8022,781.28204,789.7436,802.6374
793.36993,781.685,785.7143,782.49084
801.02563,786.1172,778.46155,754.2857
803.44324,787.72894,777.25275,745.0183
816.337,784.90845,774.43225,782.49084
813.1135,784.10254,779.2674,803.44324
796.5934,778.46155,781.28204,791.3553
790.14655,778.86444,782.0879,768.3883
801.02563,788.93774,787.72894,752.674
804.65204,786.52014,784.90845,786.1172
788.93774,782.49084,784.10254,808.2784
803.8461,779.67035,784.10254,794.17584
793.36993,778.46155,779.2674,768.3883
769.59705,779.67035,778.46155,750.2564
775.64105,778.0586,781.685,786.52014
786.1172,780.07324,788.1319,819.15753
791.75824,786.9231,792.5641,809.0842
795.38464,780.4762,793.7729,788.5348
784.5055,769.59705,788.1319,758.71796
783.69965,783.2967,787.326,785.31134
788.5348,794.17584,788.93774,827.2161
780.87915,788.93774,785.31134,812.3077
792.1612,788.5348,788.93774,785.7143
808.68134,790.9524,783.69965,763.95605
821.1722,796.1905,784.10254,791.3553
826.4103,800.2198,787.72894,826.4103
804.2491,793.36993,784.10254,818.3516
801.02563,793.7729,790.14655,806.26373
817.9487,796.1905,794.57874,782.8938
811.50183,797.3993,800.2198,800.6227
815.5311,805.05493,805.05493,843.3333
805.4579,803.8461,800.2198,837.28937
803.44324,797.8022,793.36993,806.26373
821.1722,791.75824,787.326,772.8205
809.4872,795.78754,788.1319,782.49084
808.2784,797.3993,792.5641,827.619
810.696,786.9231,786.9231,823.1868
810.696,789.7436,783.69965,808.2784
796.5934,791.75824,787.72894,815.9341
805.8608,792.1612,787.72894,802.23444
838.49817,796.99634,789.7436,780.4762
833.663,790.54944,784.10254,765.56775
805.05493,785.31134,783.2967,807.47253
808.68134,790.14655,785.7143,823.9927
821.5751,788.5348,777.25275,793.36993
818.3516,791.3553,784.10254,796.5934
831.2454,788.1319,774.43225,765.16486
821.5751,786.1172,777.25275,766.77655
817.5458,791.75824,782.0879,771.6117
839.304,786.52014,783.2967,762.74725
818.7546,787.326,786.9231,805.05493
791.3553,795.38464,788.5348,817.5458
799.011,793.7729,786.52014,788.5348
772.01465,787.72894,780.4762,761.13556
769.59705,792.96704,782.49084,752.674
791.75824,796.99634,780.07324,792.5641
809.89014,793.7729,774.83514,808.68134
813.91943,795.78754,780.87915,787.72894
804.2491,798.20514,788.93774,776.04395
790.9524,796.99634,788.5348,755.89746
788.1319,794.57874,788.1319,785.31134
788.5348,794.57874,784.10254,818.3516
779.67035,797.3993,776.04395,797.8022
782.8938,795.38464,776.04395,770.80585
797.8022,788.1319,779.67035,751.4652
797.8022,790.14655,785.31134,780.87915
770.80585,793.7729,783.69965,813.5165
755.09155,783.69965,777.25275,794.57874
745.82416,782.0879,776.8498,770.80585
764.7619,787.72894,778.86444,741.39197
792.5641,786.9231,774.83514,753.0769
777.25275,786.9231,775.2381,799.81683
780.4762,787.326,780.07324,805.4579
781.28204,790.54944,780.87915,781.28204
757.1062,796.5934,781.28204,749.0476
763.95605,800.6227,779.67035,756.7033
775.2381,801.8315,780.07324,799.011
773.22345,799.011,785.31134,806.26373
776.4469,795.38464,784.90845,780.4762
790.14655,797.8022,785.31134,750.2564
788.5348,799.81683,784.90845,756.7033
801.02563,797.8022,782.49084,799.011
807.8755,798.20514,784.90845,803.0403
784.10254,794.17584,782.0879,779.67035
775.64105,796.99634,781.28204,753.47986
774.83514,800.2198,778.46155,750.65936
772.4176,797.8022,774.43225,782.0879
774.43225,801.02563,774.0293,790.9524
764.35895,795.38464,774.43225,779.67035
803.0403,799.011,778.0586,739.3773
817.5458,795.78754,783.69965,784.90845
811.50183,793.7729,783.2967,799.81683
808.68134,798.20514,781.685,782.49084
807.47253,799.41394,780.87915,763.95605
771.6117,793.36993,775.64105,748.6447
805.05493,796.5934,780.4762,753.47986
818.7546,794.9817,790.14655,789.7436
823.9927,794.57874,791.3553,812.3077
803.0403,791.75824,782.8938,792.1612
809.0842,793.7729,775.2381,756.7033
812.3077,801.8315,775.64105,733.3333
788.5348,800.2198,779.2674,770.40295
786.1172,795.78754,780.87915,803.44324
804.2491,797.3993,786.1172,788.93774
806.6667,797.3993,785.7143,762.3443
796.1905,797.8022,774.83514,738.97437
813.5165,797.8022,772.4176,766.77655
815.12823,792.5641,778.46155,802.6374
794.9817,792.1612,778.86444,784.90845
816.7399,798.20514,780.07324,766.3736
826.8132,799.011,779.2674,746.2271
826.4103,800.2198,778.0586,763.1502
837.6923,796.99634,781.28204,807.47253
835.2747,791.3553,780.87915,804.2491
831.2454,792.5641,777.6557,779.67035
816.337,790.9524,777.25275,755.09155
809.89014,793.7729,786.9231,776.04395
805.4579,796.99634,784.90845,813.91943
787.326,792.5641,776.4469,799.011
777.25275,789.34064,774.83514,776.04395
776.4469,788.1319,774.43225,756.7033
778.46155,786.1172,774.0293,762.74725
773.22345,791.3553,773.6264,801.4286
758.71796,799.41394,776.8498,811.50183
740.18317,795.78754,776.4469,795.78754
740.58606,795.38464,775.2381,771.2088
745.42126,799.41394,777.25275,769.19415
752.674,790.54944,777.6557,805.4579
746.63007,780.4762,772.8205,783.2967
772.8205,778.0586,772.4176,764.35895
747.4359,783.69965,774.83514,806.26373
773.6264,785.31134,777.6557,755.4945
765.16486,789.7436,782.49084,792.5641
766.77655,787.72894,781.28204,809.89014
771.6117,787.326,779.2674,792.5641
796.99634,787.326,777.6557,758.71796
811.0989,788.1319,779.67035,752.27106
795.78754,790.54944,786.9231,800.2198
805.8608,793.36993,791.75824,823.9927
803.8461,793.36993,793.36993,804.65204
789.34064,788.1319,789.34064,772.8205
789.7436,785.7143,781.685,756.30035
794.57874,780.4762,782.49084,783.2967
789.34064,781.28204,780.87915,803.0403
782.8938,789.34064,782.49084,797.3993
806.6667,787.72894,780.87915,753.0769
811.0989,792.1612,784.10254,788.1319
790.9524,788.1319,782.0879,774.0293
791.75824,799.41394,788.1319,813.5165
817.9487,793.36993,787.72894,758.71796
794.17584,795.78754,785.31134,824.3956
832.8571,791.75824,790.54944,778.0586
803.8461,798.20514,787.72894,784.90845
830.84247,793.36993,795.78754,819.15753
812.3077,792.1612,797.3993,811.50183
814.3223,791.75824,792.5641,779.2674
798.20514,798.20514,787.326,746.2271
779.67035,794.17584,785.7143,759.12085
782.8938,785.7143,787.72894,801.8315
784.90845,786.52014,790.54944,799.41394
784.90845,787.72894,789.34064,775.2381
800.6227,792.96704,786.9231,751.06226
805.4579,794.57874,788.1319,763.5531
793.36993,791.3553,788.1319,799.011
776.04395,788.5348,782.49084,800.6227
778.86444,788.1319,781.28204,786.52014
796.5934,792.96704,788.5348,759.12085
771.2088,796.5934,801.02563,763.95605
775.64105,797.3993,804.2491,808.2784
801.4286,794.17584,796.5934,808.68134
798.60803,796.1905,796.5934,791.75824
795.38464,798.60803,798.20514,771.6117
808.2784,798.20514,799.011,767.98535
809.89014,803.0403,799.011,805.4579
803.44324,803.44324,793.7729,815.12823
796.5934,797.8022,790.54944,796.99634
792.5641,796.1905,794.9817,776.4469
770.80585,795.38464,793.7729,798.20514
781.685,796.99634,796.99634,763.95605
788.1319,792.5641,786.52014,814.3223
794.57874,784.10254,776.8498,792.5641
779.2674,782.49084,778.0586,770.0
776.04395,790.9524,785.7143,760.32965
782.8938,793.7729,786.9231,792.1612
773.6264,793.7729,781.28204,789.7436
787.326,796.1905,785.31134,807.0696
763.95605,791.75824,779.2674,770.80585
783.2967,788.93774,780.4762,749.85345
772.8205,782.49084,781.28204,780.07324
769.19415,784.10254,782.0879,814.7253
785.7143,786.1172,779.67035,797.3993
762.74725,782.8938,776.04395,772.8205
753.8828,784.10254,781.28204,755.89746
767.98535,784.5055,786.1172,778.0586
761.13556,781.685,780.87915,808.68134
763.1502,789.7436,782.0879,803.44324
793.7729,793.7729,785.7143,784.90845
802.23444,786.1172,786.52014,756.7033
790.54944,783.2967,785.31134,774.0293
786.1172,781.28204,784.5055,804.65204
790.54944,781.28204,782.0879,796.5934
810.696,784.10254,777.6557,778.0586
811.9048,780.07324,773.6264,751.06226
794.57874,779.67035,780.87915,769.19415
792.5641,782.49084,787.72894,809.89014
794.17584,782.49084,782.49084,806.6667
793.36993,780.87915,776.04395,789.7436
800.6227,785.7143,776.8498,769.19415
801.8315,784.5055,778.86444,769.59705
813.1135,780.87915,783.2967,808.2784
796.5934,781.28204,786.52014,820.3663
769.19415,777.6557,782.8938,792.5641
779.67035,777.25275,783.2967,758.315
781.685,778.46155,780.87915,761.13556
780.4762,781.28204,778.46155,794.17584
779.67035,783.2967,778.86444,808.68134
755.4945,782.0879,776.4469,796.99634
759.5238,783.69965,776.4469,762.74725
772.01465,784.5055,776.04395,754.2857
751.4652,782.0879,773.22345,793.7729
759.5238,776.04395,773.22345,803.0403
770.80585,772.4176,775.2381,783.69965
771.6117,780.4762,773.22345,764.35895
782.0879,788.5348,778.86444,756.7033
775.64105,786.9231,786.52014,796.1905
755.4945,779.67035,784.5055,806.6667
767.5824,779.67035,783.2967,783.2967
775.2381,782.0879,783.69965,766.77655
741.79486,781.685,784.5055,752.674
743.8095,780.4762,786.52014,782.49084
752.27106,782.8938,788.1319,805.05493
748.24176,783.69965,786.9231,792.96704
765.9707,778.0586,786.52014,778.46155
767.1795,775.64105,786.9231,756.7033
758.315,783.2967,790.54944,821.1722
752.27106,782.0879,791.3553,801.4286
747.8388,785.31134,788.1319,767.1795
751.4652,784.90845,785.31134,745.0183
767.98535,781.685,783.2967,770.0
760.32965,781.28204,786.52014,782.0879
757.50916,770.40295,784.90845,804.2491
761.53845,771.2088,787.326,790.14655
788.5348,781.685,782.0879,763.1502
790.14655,784.10254,775.64105,742.6007
789.34064,780.87915,776.04395,755.89746
766.77655,775.64105,782.8938,793.36993
757.50916,767.5824,788.1319,794.57874
768.3883,773.22345,787.326,778.46155
794.57874,786.9231,786.52014,754.2857
799.81683,784.90845,786.1172,759.12085
786.9231,781.28204,788.1319,803.44324
788.5348,778.86444,782.49084,794.17584
796.1905,778.86444,777.25275,770.40295
784.90845,778.86444,779.2674,751.4652
774.43225,780.4762,778.86444,748.6447
798.60803,778.0586,775.64105,786.1172
786.52014,772.4176,773.22345,792.96704
789.34064,780.07324,778.86444,782.49084
820.7692,785.31134,785.31134,765.9707
805.05493,782.49084,781.28204,752.27106
812.71063,781.685,775.2381,783.69965
813.1135,783.69965,777.25275,798.20514
793.7729,788.93774,785.31134,790.14655
795.38464,792.1612,786.1172,767.98535
803.8461,790.14655,783.69965,747.8388
806.6667,787.326,784.5055,785.7143
801.4286,787.72894,784.5055,809.4872
797.3993,788.93774,787.326,794.57874
809.0842,790.14655,791.75824,780.87915
792.5641,790.54944,788.1319,764.7619
772.01465,789.7436,787.326,790.14655
791.3553,790.9524,786.1172,817.9487
809.0842,795.38464,787.72894,808.2784
801.02563,796.1905,790.14655,783.69965
801.02563,793.36993,789.34064,764.35895
819.9634,792.5641,790.54944,791.3553
828.022,789.34064,789.34064,820.7692
838.9011,788.93774,791.3553,811.50183
827.619,797.3993,794.57874,787.326
821.1722,796.5934,792.96704,757.50916
862.27106,792.96704,788.1319,776.4469
897.326,788.1319,786.9231,815.9341
925.12823,780.4762,779.67035,805.8608
954.94507,785.31134,775.64105,782.0879
1002.49084,792.96704,785.31134,772.4176
1051.2454,790.9524,787.326,783.69965
1055.2748,785.7143,781.28204,811.9048
1049.6337,784.10254,780.4762,809.89014
1053.2601,784.5055,783.69965,786.9231
1069.3773,786.1172,783.69965,760.32965
1026.6666,781.28204,780.87915,807.0696
1025.4579,780.87915,780.4762,807.0696
1025.0549,785.31134,781.28204,790.54944
997.6557,789.7436,781.28204,759.92676
996.04395,796.5934,782.0879,770.0
997.25275,801.02563,785.31134,816.7399
1068.5714,785.31134,780.87915,769.19415
992.4176,795.38464,780.4762,811.9048
987.5824,791.75824,774.0293,789.7436
985.9707,792.96704,777.25275,760.32965
977.50916,794.57874,780.07324,752.674
961.79486,798.60803,782.49084,801.02563
944.0659,796.5934,784.90845,810.293
905.78754,799.81683,786.52014,794.17584
900.54944,804.65204,787.326,767.5824
907.3993,802.6374,784.10254,748.6447
868.71796,791.3553,782.49084,788.1319
845.7509,787.326,780.87915,806.26373
855.0183,796.99634,780.87915,788.93774
859.85345,798.20514,779.2674,760.32965
858.6447,794.9817,781.28204,741.79486
859.85345,800.2198,783.2967,782.0879
846.1539,801.4286,786.1172,786.1172
860.2564,803.8461,782.0879,806.6667
844.5421,801.4286,787.72894,766.77655
840.10986,797.8022,780.4762,745.0183
827.2161,797.8022,781.28204,776.04395
838.0952,802.23444,787.326,807.47253
838.0952,799.81683,783.69965,792.1612
820.7692,790.9524,778.86444,765.9707
822.381,790.14655,777.25275,740.18317
823.1868,796.5934,776.04395,768.7912
802.23444,794.17584,778.0586,806.26373
776.04395,796.5934,787.326,801.4286
761.13556,807.8755,786.9231,778.0586
732.1245,800.6227,786.1172,776.4469
706.7399,805.05493,785.31134,807.47253
752.674,805.4579,781.28204,752.27106
705.9341,807.47253,785.31134,789.7436
685.38464,808.2784,790.14655,777.25275
694.2491,801.4286,786.52014,806.6667
687.8022,807.0696,789.34064,812.3077
688.20514,806.6667,784.5055,763.95605
696.26373,799.81683,783.69965,782.49084
713.9927,803.0403,785.7143,812.71063
696.6667,800.2198,782.49084,755.09155
718.8278,800.2198,784.90845,758.315
734.5421,796.1905,786.1172,793.36993
754.2857,796.1905,786.52014,800.2198
774.0293,801.8315,785.31134,790.9524
777.25275,795.78754,782.0879,746.2271
816.337,795.78754,782.8938,737.3626
871.53845,801.4286,788.5348,787.72894
870.7326,801.02563,791.75824,801.02563
851.39197,803.44324,792.96704,778.0586
853.00366,807.47253,793.7729,750.2564
862.674,807.0696,788.93774,751.8681
869.12085,802.6374,788.5348,790.54944
875.56775,805.4579,789.34064,796.99634
903.7729,808.2784,792.96704,786.1172
913.44324,804.2491,795.78754,768.7912
907.3993,801.4286,790.9524,752.27106
906.5934,801.8315,790.54944,791.3553
904.17584,805.8608,791.75824,810.293
903.7729,807.0696,791.75824,792.1612
886.04395,794.9817,786.52014,764.7619
882.01465,794.57874,780.87915,748.24176
880.80585,801.02563,778.0586,783.2967
861.4652,803.0403,774.43225,805.8608
828.8278,803.0403,778.0586,792.5641
836.4835,799.41394,786.1172,780.07324
857.4359,807.0696,789.7436,767.5824
847.76556,812.3077,788.1319,788.1319
846.55676,806.6667,788.1319,813.91943
848.97437,805.8608,790.54944,801.8315
820.3663,803.0403,786.9231,779.2674
820.3663,800.6227,784.10254,753.47986
832.4542,799.011,781.685,772.01465
801.02563,797.8022,785.31134,808.2784
805.8608,801.02563,790.54944,801.4286
831.2454,799.011,788.5348,774.83514
833.663,796.1905,784.5055,744.21246
835.2747,796.1905,784.90845,762.74725
842.52747,797.8022,786.1172,810.293
842.52747,795.38464,782.49084,805.4579
844.94507,792.1612,780.07324,784.10254
854.61536,796.1905,779.67035,759.5238
853.8095,784.90845,782.8938,800.2198
861.8681,794.9817,784.10254,764.7619
828.8278,781.28204,777.6557,802.6374
825.6044,783.69965,780.07324,785.7143
836.4835,788.1319,785.31134,757.50916
847.3626,789.34064,779.67035,751.8681
842.9304,792.5641,778.86444,800.2198
832.4542,794.57874,782.49084,813.5165
841.31866,789.7436,780.4762,784.90845
833.663,786.1172,783.2967,757.50916
822.7839,792.1612,786.1172,759.12085
816.7399,798.20514,787.326,801.02563
800.2198,796.1905,785.7143,812.71063
801.8315,792.96704,780.87915,791.3553
821.5751,791.75824,780.87915,763.95605
821.978,788.1319,779.2674,751.4652
808.2784,787.72894,780.07324,787.326
804.2491,787.326,784.90845,813.5165
810.293,791.3553,787.72894,801.4286
824.3956,790.54944,786.9231,780.4762
819.5604,787.72894,784.10254,792.1612
792.5641,788.5348,778.0586,760.7326
810.696,783.2967,784.5055,810.696
787.326,784.5055,774.83514,738.5714
796.1905,786.1172,776.4469,776.4469
790.9524,788.5348,783.2967,815.12823
791.3553,782.0879,784.10254,793.36993
796.1905,777.6557,782.49084,768.7912
817.9487,784.90845,782.8938,759.92676
794.57874,782.8938,780.87915,782.49084
808.2784,783.69965,785.7143,753.8828
794.57874,786.9231,785.7143,779.67035
757.9121,783.69965,780.07324,808.68134
774.0293,790.9524,778.0586,782.8938
785.7143,786.1172,779.67035,753.0769
763.5531,779.67035,784.10254,815.9341
776.04395,781.685,778.86444,767.98535
779.2674,786.9231,782.49084,811.50183
784.90845,792.96704,788.93774,810.293
786.9231,794.57874,783.2967,784.5055
781.685,788.1319,772.01465,750.65936
782.8938,782.0879,772.8205,754.2857
783.69965,782.49084,778.0586,797.8022
776.04395,780.87915,778.46155,801.4286
788.1319,786.52014,780.4762,782.0879
783.2967,786.52014,779.2674,757.9121
764.7619,779.2674,780.07324,759.5238
767.98535,780.07324,784.90845,805.05493
776.8498,778.86444,781.28204,806.6667
773.22345,776.4469,778.0586,781.28204
770.80585,782.8938,782.0879,755.89746
759.92676,789.7436,781.685,744.61536
748.6447,790.54944,780.87915,784.5055
755.4945,791.75824,783.69965,809.0842
755.89746,790.54944,781.685,789.34064
751.4652,785.7143,780.07324,754.2857
754.2857,784.10254,779.2674,743.4066
753.0769,786.52014,783.69965,783.69965
748.6447,783.2967,784.10254,800.2198
736.9597,779.67035,776.4469,780.87915
737.3626,781.685,778.0586,757.9121
760.7326,788.1319,790.14655,747.8388
782.0879,789.34064,792.5641,788.5348
779.67035,788.5348,789.34064,809.4872
787.326,795.78754,791.3553,792.1612
780.4762,793.7729,791.3553,770.40295
749.0476,786.1172,783.69965,750.2564
756.7033,791.3553,784.10254,780.4762
766.77655,787.326,788.93774,807.47253
775.64105,778.46155,786.52014,793.7729
786.9231,789.34064,780.07324,740.58606
802.6374,794.17584,784.90845,771.6117
815.12823,793.7729,786.1172,815.5311
781.685,783.2967,780.4762,763.95605
801.4286,799.41394,792.96704,782.0879
812.71063,796.1905,791.3553,812.71063
796.1905,792.5641,786.9231,747.4359
799.81683,788.5348,788.1319,764.7619
791.3553,783.2967,794.9817,804.65204
779.67035,779.67035,793.36993,800.6227
767.1795,782.49084,782.49084,774.0293
773.6264,786.1172,779.2674,739.3773
795.78754,786.52014,783.2967,748.24176
804.2491,782.49084,785.7143,794.57874
801.02563,779.67035,785.31134,793.7729
821.1722,784.90845,779.2674,744.21246
801.4286,780.87915,780.07324,763.1502
820.3663,786.52014,785.31134,753.8828
819.9634,783.2967,785.7143,791.75824
836.8865,782.49084,784.10254,798.60803
832.8571,779.2674,780.87915,780.4762
818.3516,770.40295,785.31134,754.2857
811.0989,780.07324,778.86444,777.6557
825.2015,772.4176,783.69965,762.3443
803.8461,773.6264,779.67035,751.8681
815.9341,776.8498,783.2967,791.3553
813.1135,782.0879,780.87915,802.23444
790.9524,771.2088,778.86444,738.1685
787.326,774.0293,782.49084,776.4469
774.0293,771.6117,786.1172,798.60803
768.7912,773.6264,778.46155,779.2674
776.8498,779.67035,779.67035,754.2857
773.22345,772.4176,780.4762,736.1539
763.5531,764.35895,777.6557,773.22345
775.2381,768.7912,783.2967,803.0403
796.99634,774.43225,780.4762,785.31134
800.2198,778.0586,777.6557,757.1062
805.05493,778.86444,782.0879,745.0183
798.60803,778.86444,786.1172,785.31134
798.20514,776.04395,788.5348,814.3223
803.44324,774.0293,784.5055,789.34064
821.978,775.64105,777.6557,759.5238
828.022,775.2381,778.46155,744.21246
796.99634,770.0,780.87915,770.40295
801.02563,778.46155,776.8498,801.02563
807.8755,790.14655,778.86444,788.1319
780.87915,781.685,781.685,765.9707
777.6557,776.8498,777.25275,740.989
795.38464,784.90845,778.86444,792.96704
793.7729,785.31134,779.2674,753.8828
784.5055,785.31134,778.0586,784.5055
773.6264,790.9524,780.87915,766.3736
765.9707,787.326,778.46155,747.4359
748.6447,783.2967,777.6557,754.2857
760.7326,784.10254,784.10254,797.8022
777.25275,783.2967,783.2967,809.0842
774.43225,783.2967,778.0586,790.14655
774.83514,781.28204,776.04395,760.7326
756.30035,781.28204,772.4176,763.95605
752.674,780.87915,772.4176,802.23444
750.65936,776.8498,772.8205,802.6374
740.989,776.04395,771.6117,779.2674
739.3773,780.07324,774.43225,752.674
746.2271,775.2381,773.22345,751.06226
759.5238,774.83514,776.4469,802.6374
760.32965,786.1172,774.83514,813.1135
750.2564,786.1172,772.01465,787.72894
768.7912,783.2967,778.86444,767.98535
789.34064,785.7143,781.28204,759.5238
775.64105,784.5055,778.86444,797.8022
759.92676,782.8938,776.8498,804.2491
760.32965,779.67035,776.4469,780.07324
763.1502,780.87915,776.8498,751.8681
764.7619,777.25275,772.4176,729.707
749.45056,773.6264,772.8205,763.1502
755.09155,778.0586,774.83514,786.9231
745.82416,778.0586,775.2381,776.4469
734.1392,779.67035,777.6557,752.674
758.315,785.7143,777.25275,725.2747
757.1062,784.90845,775.2381,759.5238
764.7619,784.90845,776.4469,802.6374
775.64105,786.9231,779.2674,792.5641
758.71796,776.4469,774.0293,743.4066
770.80585,784.90845,772.4176,773.22345
762.3443,778.46155,777.6557,763.95605
785.7143,783.69965,771.2088,798.60803
792.5641,783.2967,768.7912,788.1319
785.31134,780.87915,764.7619,770.0
779.2674,772.01465,766.3736,749.45056
775.64105,770.80585,770.80585,775.2381
772.01465,772.4176,770.40295,806.26373
776.04395,773.6264,768.3883,805.05493
766.3736,776.4469,770.80585,784.5055
773.22345,775.2381,772.8205,752.674
780.4762,775.2381,778.46155,774.83514
767.5824,775.64105,780.07324,815.9341
762.3443,778.86444,775.2381,802.6374
763.5531,778.46155,775.64105,771.6117
771.6117,770.80585,775.2381,740.18317
761.9414,770.40295,773.22345,748.24176
755.89746,777.25275,778.46155,790.9524
747.8388,782.0879,780.4762,790.9524
739.3773,786.1172,783.69965,774.43225
753.47986,789.7436,788.5348,753.8828
759.92676,788.93774,786.1172,755.89746
746.63007,788.5348,779.67035,791.3553
755.89746,788.1319,775.2381,791.3553
764.7619,786.52014,772.8205,773.6264
752.674,784.90845,770.80585,744.21246
740.18317,783.2967,771.2088,740.18317
759.5238,781.685,773.6264,787.72894
784.5055,780.07324,772.8205,798.20514
697.0696,782.49084,772.4176,778.86444
628.1685,789.7436,773.22345,762.74725
623.73627,796.1905,774.83514,757.9121
612.0513,794.9817,781.28204,791.75824
605.6044,792.1612,782.0879,811.0989
602.381,791.3553,781.28204,796.99634
599.9634,788.1319,777.6557,763.95605
606.4103,789.7436,773.6264,750.2564
609.2308,792.1612,776.8498,793.7729
610.4396,787.72894,777.6557,816.7399
620.5128,789.7436,773.6264,792.1612
618.9011,796.5934,772.8205,769.19415
604.3956,793.7729,776.4469,751.06226
621.31866,786.52014,774.43225,781.28204
633.4066,791.3553,774.0293,811.50183
630.989,799.81683,780.87915,800.2198
645.89746,802.6374,782.49084,775.2381
650.7326,800.2198,780.4762,748.24176
658.7912,798.60803,782.0879,773.6264
703.91943,800.2198,780.87915,794.17584
697.8755,804.2491,782.0879,776.4469
720.0366,805.8608,782.8938,755.09155
679.34064,800.2198,782.8938,809.89014
755.89746,805.8608,782.8938,765.56775
733.73627,803.0403,783.2967,807.47253
732.52747,804.2491,784.5055,807.47253
749.0476,804.2491,782.0879,787.72894
727.6923,795.38464,775.2381,759.12085
724.87177,791.75824,772.8205,764.35895
737.3626,792.96704,776.4469,806.26373
723.2601,796.1905,777.25275,807.0696
709.9634,797.8022,778.86444,788.1319
705.5311,803.44324,783.69965,767.1795
724.4689,809.89014,786.52014,771.2088
734.94507,808.2784,786.52014,811.50183
722.0513,807.0696,784.5055,811.9048
745.82416,808.2784,782.0879,794.57874
757.1062,810.293,779.67035,775.64105
734.94507,804.2491,775.64105,769.19415
739.7802,798.60803,778.0586,811.0989
742.6007,803.44324,783.2967,819.5604
736.9597,807.47253,782.0879,792.96704
745.0183,807.8755,777.25275,762.3443
733.3333,805.4579,778.0586,755.4945
718.8278,804.65204,781.28204,798.20514
715.2015,798.60803,781.28204,810.696
714.7985,792.1612,777.6557,790.54944
718.4249,793.36993,776.8498,766.3736
709.15753,795.38464,780.07324,751.8681
711.1722,798.60803,780.87915,792.1612
703.5165,794.9817,775.2381,812.71063
728.9011,793.36993,774.83514,791.75824
755.4945,795.78754,780.87915,770.40295
726.8865,796.1905,783.2967,753.47986
719.2308,797.8022,785.7143,787.72894
717.2161,799.41394,784.90845,817.1429
712.7839,796.99634,782.0879,802.23444
730.10986,792.1612,778.86444,776.04395
751.06226,795.38464,784.90845,753.0769
740.58606,804.65204,796.5934,790.14655
732.9304,815.9341,806.26373,838.9011
733.73627,811.0989,801.4286,820.3663
722.4542,800.2198,790.54944,777.25275
732.9304,800.6227,796.5934,753.0769
739.3773,798.20514,796.5934,782.49084
740.989,802.6374,794.9817,823.5897
756.30035,805.4579,800.2198,812.3077
758.71796,797.3993,797.8022,787.72894
753.47986,794.9817,792.5641,761.13556
748.6447,790.14655,791.75824,773.6264
749.45056,792.96704,794.9817,816.7399
751.06226,799.41394,800.6227,810.293
743.8095,798.20514,795.38464,779.2674
732.9304,792.5641,786.1172,746.63007
730.10986,797.8022,793.36993,758.71796
754.68866,806.6667,804.2491,809.89014
765.16486,799.41394,796.1905,803.0403
750.2564,800.6227,789.7436,776.04395
739.3773,805.05493,788.93774,748.6447
763.95605,803.44324,788.5348,751.06226
797.8022,800.2198,791.3553,797.8022
782.49084,799.81683,791.3553,805.05493
783.2967,803.44324,794.9817,786.1172
799.41394,799.81683,794.57874,760.32965
784.5055,788.5348,787.326,751.06226
783.69965,789.34064,788.5348,796.1905
785.31134,794.57874,790.14655,811.0989
777.6557,796.1905,783.2967,781.28204
757.9121,791.3553,778.46155,755.4945
754.68866,787.72894,782.49084,748.6447
762.74725,795.78754,788.1319,793.36993
765.16486,792.1612,781.685,809.4872
768.7912,786.1172,775.2381,789.34064
770.80585,788.5348,780.07324,776.04395
774.83514,793.7729,783.2967,767.1795
783.69965,794.57874,782.8938,798.20514
793.7729,786.9231,778.0586,819.9634
782.0879,781.685,776.4469,804.2491
749.45056,780.4762,780.4762,774.83514
737.3626,783.69965,780.4762,753.8828
742.6007,794.17584,784.5055,783.69965
739.3773,796.1905,788.5348,811.9048
734.1392,791.3553,785.31134,799.81683
734.94507,789.34064,780.87915,777.6557
747.4359,786.9231,781.28204,753.8828
770.40295,785.31134,791.3553,780.4762
769.59705,784.5055,796.1905,819.5604
757.1062,784.10254,792.1612,801.02563
751.06226,787.72894,787.326,766.77655
751.8681,792.96704,787.326,748.6447
752.674,796.99634,789.7436,778.86444
749.0476,796.99634,789.34064,824.3956
750.65936,798.60803,790.9524,817.9487
749.0476,803.44324,789.7436,796.99634
755.89746,803.0403,787.72894,774.0293
755.89746,796.1905,787.326,779.2674
770.40295,794.17584,790.54944,822.7839
802.6374,799.011,793.7729,832.4542
808.2784,802.6374,794.57874,809.89014
793.7729,799.81683,794.17584,777.25275
802.6374,795.38464,790.54944,779.67035
822.7839,795.38464,790.54944,818.7546
812.3077,795.38464,792.5641,820.7692
791.3553,795.78754,790.9524,804.2491
769.19415,799.011,793.36993,783.2967
748.24176,801.8315,794.9817,779.67035
757.9121,799.011,792.96704,816.7399
759.12085,793.7729,795.38464,826.0073
745.82416,799.011,799.011,809.89014
741.39197,798.20514,788.93774,776.04395
721.2454,790.14655,781.28204,753.0769
708.3516,785.7143,784.10254,788.1319
705.5311,786.1172,784.90845,809.0842
705.12823,792.5641,790.54944,788.1319
697.8755,787.326,788.1319,751.06226
696.6667,788.1319,787.326,743.8095
693.0403,795.38464,791.75824,782.0879
707.5458,792.5641,791.3553,790.54944
703.91943,786.52014,788.93774,769.59705
699.0842,794.9817,790.54944,801.8315
707.1429,791.3553,788.93774,745.82416
707.9487,801.8315,788.5348,774.83514
728.49817,799.011,787.326,807.8755
744.61536,794.17584,787.326,794.9817
758.315,794.57874,785.7143,774.43225
784.90845,788.5348,783.2967,747.8388
788.93774,785.31134,797.3993,808.68134
768.3883,788.1319,796.1905,798.20514
795.78754,782.8938,787.72894,767.1795
762.74725,785.31134,791.3553,772.01465
783.2967,782.49084,792.5641,756.7033
790.14655,790.54944,795.38464,768.7912
770.40295,795.78754,793.36993,795.38464
767.5824,792.1612,789.7436,791.3553
782.8938,794.57874,785.7143,770.0
802.23444,799.41394,790.54944,757.1062
800.6227,792.1612,798.60803,771.2088
784.10254,785.7143,789.7436,802.23444
788.1319,792.96704,786.1172,803.8461
785.7143,792.96704,792.5641,785.7143
774.43225,785.7143,794.17584,758.71796
772.4176,788.5348,791.75824,756.7033
781.28204,794.9817,788.5348,790.14655
798.20514,798.20514,786.9231,805.8608
785.31134,799.011,794.17584,796.99634
767.98535,794.17584,796.1905,771.2088
791.3553,794.9817,796.99634,774.0293
795.78754,804.65204,805.8608,819.9634
774.43225,802.6374,802.23444,824.7985
773.22345,797.3993,795.38464,803.0403
776.4469,795.38464,794.9817,778.0586
773.22345,794.57874,801.02563,770.80585
769.19415,791.75824,800.6227,809.0842
758.315,788.5348,794.17584,816.337
770.0,786.1172,795.38464,799.41394
787.326,788.1319,798.60803,777.6557
780.87915,790.9524,798.60803,762.74725
765.16486,786.9231,795.38464,801.8315
764.7619,792.96704,799.011,830.4396
766.77655,796.1905,799.011,812.3077
759.5238,789.34064,796.99634,788.5348
767.5824,790.9524,799.41394,770.80585
776.4469,796.1905,799.41394,801.8315
774.0293,795.38464,798.20514,828.4249
780.07324,788.93774,792.96704,805.4579
783.2967,782.8938,791.75824,779.67035
767.1795,778.86444,792.1612,785.7143
778.86444,773.6264,791.75824,820.7692
792.96704,783.69965,792.96704,816.7399
775.64105,782.0879,792.96704,758.315
784.90845,791.3553,794.9817,795.38464
785.31134,784.10254,790.14655,760.32965
786.1172,775.64105,782.8938,776.4469
790.14655,782.0879,788.1319,819.9634
785.7143,786.9231,789.7436,815.9341
768.3883,780.07324,782.0879,786.52014
764.35895,780.87915,782.0879,756.7033
778.0586,781.28204,780.87915,767.98535
749.45056,782.0879,782.8938,808.68134
746.63007,782.8938,782.8938,786.52014
749.45056,788.93774,781.28204,756.7033
756.30035,784.90845,780.87915,759.5238
750.2564,786.52014,783.2967,795.38464
770.80585,782.8938,782.0879,807.47253
734.5421,785.7143,781.28204,802.6374
745.82416,784.90845,784.10254,792.1612
764.7619,787.326,782.0879,760.7326
761.53845,781.685,777.6557,753.0769
755.09155,780.87915,780.87915,796.1905
773.6264,780.07324,788.5348,805.05493
786.1172,785.7143,790.14655,784.10254
776.4469,787.72894,780.07324,754.2857
778.46155,782.0879,776.8498,746.63007
775.64105,778.0586,775.64105,783.69965
769.19415,781.28204,775.64105,803.8461
776.4469,783.69965,777.6557,787.72894
783.2967,785.7143,783.2967,757.1062
782.49084,794.9817,791.75824,757.9121
782.49084,797.3993,792.1612,797.8022
765.9707,787.72894,785.7143,809.0842
765.9707,783.69965,786.9231,794.57874
779.67035,785.7143,788.1319,770.0
787.326,786.1172,785.7143,752.674
813.5165,789.34064,788.5348,794.57874
835.2747,793.36993,791.75824,824.3956
831.6484,790.9524,789.7436,804.65204
817.1429,782.8938,784.5055,768.7912
817.1429,782.8938,778.46155,748.24176
821.5751,785.31134,783.2967,788.5348
807.0696,783.2967,789.34064,821.1722
810.293,782.8938,781.685,801.02563
814.7253,786.52014,778.0586,776.04395
800.2198,786.9231,778.0586,755.4945
809.0842,780.4762,778.0586,775.64105
812.3077,778.46155,775.2381,809.89014
813.91943,780.87915,769.19415,804.65204
820.3663,786.52014,776.04395,784.5055
823.1868,785.7143,781.28204,762.3443
829.2308,787.326,778.0586,775.64105
829.2308,788.93774,780.87915,806.6667
830.84247,787.326,783.2967,812.71063
801.4286,781.685,778.86444,799.41394
799.41394,779.2674,775.64105,767.98535
796.1905,777.6557,776.8498,782.0879
780.4762,778.0586,776.8498,822.7839
778.46155,781.685,777.6557,813.1135
778.46155,785.7143,781.685,794.9817
781.685,786.52014,782.0879,771.2088
774.83514,781.28204,780.4762,775.2381
777.6557,783.2967,784.10254,822.381
772.4176,788.5348,786.52014,828.4249
763.5531,786.52014,779.2674,807.0696
775.64105,786.52014,783.2967,783.69965
792.1612,790.14655,787.72894,781.28204
801.02563,791.3553,782.8938,824.3956
793.7729,792.5641,783.69965,834.87177
779.67035,795.78754,786.9231,811.50183
782.0879,796.5934,786.9231,780.07324
796.99634,795.38464,782.0879,763.1502
808.2784,800.2198,788.1319,803.8461
802.23444,801.4286,796.5934,822.381
800.6227,803.0403,788.93774,805.8608
808.68134,806.26373,782.8938,780.87915
791.75824,801.4286,789.7436,768.7912
769.59705,794.57874,788.5348,802.23444
764.7619,796.1905,786.52014,823.1868
769.59705,800.2198,792.1612,803.8461
789.34064,800.2198,793.36993,774.83514
796.1905,806.6667,791.75824,756.7033
778.46155,810.293,794.17584,794.9817
773.22345,807.8755,790.9524,824.3956
773.22345,802.6374,787.72894,801.8315
758.315,798.60803,787.326,780.4762
765.16486,798.60803,783.69965,760.32965
788.5348,803.0403,782.0879,784.90845
784.10254,803.44324,778.86444,819.5604
776.04395,799.81683,782.0879,811.0989
768.7912,799.81683,788.1319,785.31134
754.68866,798.60803,784.10254,758.71796
730.9158,797.3993,789.7436,782.49084
726.8865,799.81683,790.14655,819.15753
749.0476,804.65204,782.8938,804.65204
769.19415,807.0696,790.14655,782.49084
777.6557,805.8608,790.9524,756.30035
766.77655,801.4286,784.5055,759.92676
764.35895,801.4286,785.31134,803.0403
781.685,805.05493,783.69965,795.78754
802.23444,805.05493,781.685,765.56775
795.38464,799.011,777.6557,735.7509
793.36993,795.38464,777.6557,732.9304
815.5311,801.4286,789.34064,781.28204
828.8278,802.6374,788.5348,783.2967
823.9927,801.8315,782.0879,761.9414
818.3516,805.8608,787.326,743.4066
813.1135,812.3077,791.3553,743.4066
813.1135,816.337,794.57874,784.10254
823.1868,814.3223,796.5934,797.3993
834.4689,810.696,794.9817,782.8938
813.5165,811.0989,784.10254,745.42126
785.7143,801.4286,780.4762,726.8865
792.1612,793.36993,786.52014,772.4176
796.5934,803.0403,789.7436,790.9524
804.65204,809.89014,788.93774,784.90845
799.41394,803.8461,781.685,757.9121
767.98535,799.81683,784.5055,732.52747
761.9414,796.5934,788.5348,779.67035
780.4762,796.5934,786.52014,740.989
784.10254,794.9817,787.326,791.3553
783.69965,796.5934,784.5055,768.3883
790.9524,796.1905,783.69965,800.2198
796.99634,797.8022,785.7143,787.326
776.4469,793.36993,785.31134,809.89014
780.87915,796.1905,788.5348,763.5531
801.02563,795.38464,793.7729,767.98535
797.8022,790.54944,790.9524,745.0183
804.65204,792.1612,787.72894,769.19415
814.3223,796.1905,791.75824,805.4579
815.5311,795.78754,787.326,785.31134
801.8315,786.52014,791.3553,747.8388
793.36993,799.81683,794.9817,798.20514
795.78754,791.3553,791.75824,767.98535
809.89014,790.14655,788.5348,764.35895
788.5348,801.02563,788.93774,788.1319
786.1172,792.1612,779.67035,764.7619
784.5055,789.7436,782.8938,745.0183
793.36993,794.57874,788.1319,759.92676
807.47253,794.57874,787.72894,795.78754
813.5165,791.3553,789.7436,798.60803
814.3223,788.1319,788.93774,779.2674
822.7839,785.7143,790.14655,772.01465
833.2601,791.3553,785.31134,814.7253
814.3223,786.52014,789.34064,759.12085
824.7985,790.14655,786.1172,823.9927
801.02563,784.90845,785.7143,799.41394
791.3553,784.5055,785.7143,770.40295
802.23444,788.5348,792.5641,782.8938
811.0989,800.6227,794.57874,836.4835
808.2784,794.17584,786.1172,807.8755
788.93774,794.17584,792.5641,779.2674
808.68134,797.8022,801.4286,833.2601
794.17584,797.8022,795.38464,773.6264
798.20514,795.38464,790.54944,812.71063
803.0403,790.14655,788.5348,797.3993
798.60803,796.1905,788.93774,750.65936
807.8755,797.3993,792.1612,774.83514
794.17584,791.3553,789.34064,788.93774
787.72894,792.96704,792.5641,808.68134
793.36993,792.5641,786.9231,819.15753
778.46155,794.57874,791.3553,781.685
764.35895,792.5641,787.326,750.65936
744.21246,791.3553,788.1319,733.3333
745.0183,795.78754,787.72894,768.7912
763.5531,797.3993,786.9231,794.9817
767.5824,790.9524,786.9231,781.28204
745.0183,790.9524,784.5055,750.2564
716.0073,794.9817,782.49084,726.4835
712.381,793.7729,786.1172,759.5238
730.9158,784.90845,790.9524,796.5934
736.9597,782.0879,793.7729,791.75824
743.00366,787.72894,790.14655,760.32965
744.21246,789.7436,786.9231,724.0659
749.45056,794.57874,792.96704,756.7033
765.16486,797.8022,804.2491,808.2784
772.01465,790.9524,804.2491,806.6667
780.4762,786.1172,799.011,786.1172
791.75824,790.9524,796.99634,750.65936
787.72894,791.75824,788.93774,759.5238
781.28204,795.38464,788.93774,809.4872
779.67035,788.1319,786.1172,782.49084
776.4469,792.1612,787.326,759.12085
770.80585,794.9817,790.9524,770.80585
778.0586,795.38464,789.7436,808.68134
793.36993,791.3553,792.1612,809.0842
794.9817,790.14655,790.54944,806.26373
763.5531,792.1612,790.14655,784.5055
766.77655,792.1612,792.5641,756.7033
790.14655,793.7729,793.36993,757.1062
794.57874,798.20514,795.78754,802.23444
794.57874,797.8022,794.57874,811.9048
798.20514,791.75824,788.1319,788.93774
796.1905,782.0879,781.685,751.4652
812.3077,798.20514,783.2967,805.05493
799.81683,786.52014,780.87915,750.2564
811.0989,788.1319,784.90845,801.8315
801.8315,790.54944,788.93774,777.6557
813.91943,792.1612,784.5055,820.3663
790.14655,793.7729,794.17584,768.3883
797.8022,793.36993,795.78754,806.6667
809.89014,790.14655,796.1905,827.619
806.6667,787.72894,792.96704,809.4872
797.3993,786.9231,792.5641,781.28204
797.3993,790.14655,792.1612,765.9707
796.99634,790.54944,792.1612,808.68134
792.96704,793.36993,799.011,836.8865
811.50183,796.1905,799.41394,820.3663
819.5604,792.96704,792.96704,786.9231
800.2198,792.1612,792.1612,760.32965
790.9524,793.36993,793.7729,797.3993
783.69965,794.17584,794.57874,831.2454
781.685,790.9524,796.99634,812.71063
781.685,788.5348,799.011,786.9231
774.43225,792.96704,795.38464,753.0769
766.3736,794.9817,793.36993,774.83514
767.1795,793.7729,799.011,820.7692
781.28204,792.5641,796.99634,804.2491
786.9231,797.8022,793.7729,771.6117
773.22345,794.57874,795.78754,754.2857
769.59705,788.1319,794.57874,775.2381
781.28204,790.54944,790.54944,812.3077
787.326,795.78754,790.54944,815.12823
787.72894,787.326,787.72894,783.2967
773.22345,778.86444,783.69965,746.2271
769.19415,781.685,786.9231,761.53845
790.54944,784.90845,790.9524,810.696
800.2198,784.90845,788.5348,811.9048
777.25275,777.6557,789.7436,791.3553
760.32965,775.64105,788.5348,765.9707
761.13556,782.49084,781.28204,765.9707
773.6264,784.5055,782.8938,807.47253
776.4469,785.31134,784.10254,810.293
762.3443,788.1319,783.69965,788.93774
768.7912,789.34064,788.1319,767.1795
771.2088,786.52014,784.5055,759.92676
774.83514,784.5055,783.2967,804.2491
776.04395,782.8938,784.10254,820.7692
771.2088,778.86444,776.8498,791.75824
787.72894,780.07324,776.8498,759.5238
776.4469,781.685,781.28204,755.89746
746.2271,782.0879,782.49084,796.99634
741.39197,782.0879,784.90845,813.1135
750.2564,780.87915,784.90845,791.3553
753.0769,778.46155,782.8938,754.68866
758.71796,782.0879,782.0879,733.3333
780.4762,787.326,780.87915,770.40295
776.4469,786.1172,781.685,796.5934
759.92676,785.31134,783.2967,777.25275
760.7326,784.90845,777.6557,739.7802
766.3736,786.9231,779.2674,722.0513
770.80585,786.1172,788.1319,762.74725
756.7033,781.685,786.9231,792.96704
756.7033,783.69965,783.69965,774.83514
