eeg_1,eeg_2,eeg_3,eeg_4
791.75824,811.50183,807.8755,771.2088
802.6374,816.7399,801.02563,785.7143
804.2491,817.9487,803.0403,784.90845
800.6227,815.9341,801.4286,776.4469
797.3993,815.12823,800.6227,789.7436
802.23444,812.3077,798.60803,801.4286
794.17584,809.0842,793.36993,789.7436
792.5641,814.7253,798.60803,780.07324
800.6227,817.1429,801.8315,790.54944
798.60803,814.3223,798.20514,799.41394
795.38464,817.1429,798.60803,787.72894
792.96704,817.1429,802.23444,781.685
787.72894,811.0989,798.60803,776.8498
790.14655,811.9048,796.99634,776.04395
787.72894,815.5311,798.20514,778.46155
779.2674,813.5165,794.9817,770.80585
779.67035,811.9048,790.9524,773.6264
777.25275,816.337,790.9524,775.2381
767.1795,816.337,793.36993,765.9707
767.5824,811.9048,796.99634,766.3736
767.5824,812.3077,796.5934,771.6117
760.32965,809.89014,798.20514,762.74725
766.77655,812.71063,801.8315,764.35895
780.4762,814.7253,808.68134,782.0879
782.8938,815.5311,807.8755,782.0879
788.93774,821.1722,804.2491,779.67035
802.6374,820.3663,808.68134,790.9524
806.6667,817.9487,811.50183,803.0403
801.4286,820.3663,809.89014,805.05493
803.0403,818.3516,804.2491,809.0842
810.696,821.5751,804.65204,817.1429
817.5458,825.6044,807.0696,815.9341
820.7692,824.7985,805.05493,814.3223
823.1868,825.6044,804.2491,813.5165
816.7399,823.1868,806.6667,808.2784
813.1135,824.7985,805.4579,808.68134
808.68134,822.7839,799.41394,808.2784
803.44324,818.3516,801.4286,796.1905
806.6667,821.978,804.2491,791.75824
805.4579,820.3663,799.81683,791.3553
794.9817,813.1135,799.011,787.72894
783.2967,816.337,802.6374,779.2674
782.0879,818.3516,805.4579,780.87915
781.685,816.7399,802.6374,786.1172
778.86444,819.15753,799.41394,786.1172
776.8498,821.1722,799.81683,782.8938
770.80585,821.5751,797.8022,778.46155
772.4176,814.7253,795.38464,778.46155
772.01465,813.91943,803.0403,782.49084
773.22345,813.5165,807.47253,778.46155
776.04395,816.337,805.8608,774.43225
777.25275,820.3663,809.0842,779.2674
784.90845,817.9487,807.0696,778.46155
793.7729,821.978,806.6667,790.14655
797.3993,826.0073,812.3077,797.8022
800.2198,823.5897,812.3077,788.1319
805.05493,823.5897,812.71063,793.7729
803.0403,821.5751,813.1135,799.81683
801.4286,816.337,809.0842,788.93774
803.8461,817.9487,805.8608,794.57874
800.6227,819.5604,804.2491,796.5934
799.011,817.1429,803.44324,790.54944
798.20514,814.7253,797.8022,780.07324
796.99634,815.5311,799.011,779.67035
794.17584,812.71063,800.6227,782.0879
788.5348,808.2784,796.99634,786.1172
788.1319,807.8755,793.7729,784.10254
786.9231,809.4872,798.20514,782.49084
787.72894,813.5165,793.36993,782.0879
792.1612,815.5311,801.02563,782.0879
792.96704,816.337,803.0403,774.0293
790.9524,814.7253,801.4286,780.4762
786.52014,811.50183,802.23444,784.5055
782.49084,808.68134,805.4579,784.10254
780.87915,805.4579,808.68134,782.8938
776.04395,806.26373,807.8755,770.80585
770.40295,811.0989,808.68134,777.25275
778.86444,809.4872,806.6667,790.54944
786.52014,807.0696,809.4872,785.31134
788.93774,811.0989,813.1135,790.54944
790.14655,812.71063,811.9048,790.9524
794.9817,815.12823,811.9048,786.1172
799.41394,815.5311,805.4579,784.5055
798.60803,815.9341,800.6227,791.75824
799.011,817.1429,807.0696,791.75824
796.5934,813.5165,811.50183,787.326
792.1612,812.3077,808.2784,795.38464
794.57874,809.4872,806.6667,797.8022
797.3993,806.26373,807.8755,792.1612
802.6374,813.1135,812.3077,786.1172
803.8461,814.3223,813.91943,792.5641
796.5934,810.293,808.68134,790.14655
798.60803,812.3077,809.4872,784.10254
794.17584,812.3077,811.0989,779.2674
779.67035,808.2784,807.8755,784.90845
776.04395,806.6667,806.6667,790.9524
770.40295,810.696,808.2784,788.1319
765.56775,809.4872,806.6667,775.64105
772.4176,807.0696,803.44324,776.4469
772.01465,810.293,806.26373,788.1319
763.5531,806.6667,805.4579,786.52014
766.77655,805.05493,808.2784,790.14655
773.22345,807.0696,810.696,786.9231
765.56775,809.4872,808.2784,776.04395
769.59705,809.4872,805.8608,773.22345
779.2674,807.47253,799.81683,775.2381
774.0293,807.47253,797.8022,772.01465
782.0879,815.5311,804.65204,772.4176
793.36993,820.7692,809.0842,786.9231
793.36993,819.15753,805.05493,793.7729
795.78754,818.7546,804.2491,790.9524
790.9524,817.9487,809.4872,790.54944
788.5348,815.5311,808.68134,788.5348
782.49084,813.91943,803.0403,788.1319
779.2674,815.12823,801.02563,775.64105
784.10254,812.71063,795.78754,772.4176
782.0879,813.5165,793.36993,773.22345
782.49084,814.7253,796.5934,776.4469
782.8938,815.5311,803.44324,780.07324
779.2674,815.5311,806.26373,776.04395
775.2381,815.5311,805.05493,772.8205
770.80585,814.7253,803.8461,775.64105
761.9414,812.3077,803.8461,778.86444
755.4945,811.50183,803.8461,777.25275
755.89746,808.68134,796.1905,771.2088
759.5238,807.8755,795.38464,773.22345
756.7033,808.68134,799.81683,774.83514
759.92676,808.68134,800.2198,765.16486
770.80585,809.4872,795.78754,771.2088
774.0293,811.9048,792.96704,778.0586
780.07324,816.7399,796.5934,776.4469
789.34064,818.7546,805.05493,777.6557
788.5348,809.89014,800.2198,774.43225
778.86444,806.26373,793.7729,770.80585
777.6557,811.0989,796.1905,765.9707
786.52014,813.1135,796.99634,775.64105
789.34064,813.91943,796.5934,777.25275
789.34064,809.4872,797.8022,774.43225
789.7436,809.0842,797.8022,781.685
789.34064,812.71063,800.2198,786.9231
792.96704,814.3223,806.6667,795.78754
795.38464,815.9341,807.8755,788.5348
789.7436,815.12823,807.0696,776.4469
784.5055,815.12823,806.6667,784.90845
779.67035,813.5165,807.47253,792.5641
775.2381,812.71063,809.0842,780.87915
773.6264,811.9048,801.4286,773.6264
771.2088,808.68134,793.36993,773.22345
768.3883,807.8755,794.9817,780.07324
765.16486,810.696,802.23444,781.685
760.7326,807.47253,807.8755,778.46155
762.3443,806.6667,805.05493,787.72894
770.40295,811.9048,805.4579,784.5055
771.2088,812.71063,801.8315,775.2381
771.6117,809.89014,794.9817,762.3443
776.8498,808.68134,796.1905,761.9414
777.6557,809.4872,798.20514,782.0879
782.49084,809.89014,803.0403,788.1319
787.326,811.9048,801.02563,782.49084
788.1319,814.3223,799.81683,782.49084
789.34064,812.3077,803.0403,777.25275
790.54944,811.0989,799.81683,774.0293
796.5934,809.4872,799.41394,786.1172
796.5934,807.47253,797.3993,785.7143
801.02563,813.91943,795.78754,788.1319
810.696,822.7839,799.41394,794.9817
809.89014,823.5897,806.26373,794.9817
804.65204,821.978,806.6667,782.8938
798.20514,821.1722,804.65204,786.52014
798.20514,822.7839,805.05493,781.28204
797.8022,813.91943,805.8608,789.7436
795.38464,809.0842,809.4872,790.54944
789.7436,808.68134,809.4872,777.6557
782.0879,810.696,808.68134,778.46155
781.685,811.0989,804.65204,785.7143
779.2674,813.91943,803.44324,779.67035
781.685,815.5311,810.293,784.5055
780.87915,812.71063,810.696,787.72894
781.685,817.1429,809.89014,778.46155
788.5348,814.3223,811.0989,784.5055
786.52014,816.337,811.50183,782.0879
785.7143,816.7399,809.89014,778.86444
779.67035,814.3223,805.8608,777.25275
785.31134,813.1135,800.6227,774.43225
795.78754,814.3223,804.2491,771.6117
797.8022,812.3077,810.293,777.6557
794.17584,807.8755,807.8755,783.2967
793.36993,812.71063,805.05493,788.1319
794.57874,815.9341,806.6667,786.1172
794.57874,810.293,803.8461,792.96704
794.57874,808.2784,801.4286,795.38464
801.4286,810.293,802.6374,784.90845
801.02563,807.47253,799.81683,790.14655
795.38464,811.0989,802.23444,792.96704
795.38464,815.5311,806.6667,791.3553
797.8022,812.3077,807.47253,793.36993
798.20514,815.12823,805.05493,782.8938
796.1905,815.5311,801.4286,771.2088
789.34064,808.68134,804.65204,783.2967
786.1172,811.0989,804.2491,790.54944
784.5055,812.3077,801.02563,788.5348
785.7143,807.8755,801.8315,790.9524
786.1172,811.50183,801.02563,786.9231
780.87915,812.3077,805.05493,784.5055
782.49084,807.8755,803.8461,774.43225
784.10254,809.0842,794.17584,769.59705
784.10254,808.68134,796.1905,775.2381
782.49084,807.8755,805.05493,769.19415
780.4762,807.47253,807.47253,773.22345
780.07324,806.26373,802.23444,780.4762
780.4762,805.8608,798.20514,775.64105
782.49084,808.2784,801.02563,766.3736
784.5055,811.0989,801.8315,780.07324
786.1172,812.71063,798.20514,790.14655
796.5934,812.71063,798.20514,783.69965
798.20514,812.71063,799.011,792.1612
811.50183,813.91943,799.81683,788.1319
801.8315,815.12823,798.60803,783.69965
793.7729,813.91943,799.011,788.1319
816.7399,812.3077,801.8315,789.34064
809.0842,813.91943,803.44324,786.9231
800.6227,813.91943,803.44324,788.93774
796.99634,815.5311,803.0403,788.1319
791.75824,815.5311,800.6227,782.8938
788.5348,808.2784,802.6374,787.326
785.31134,810.293,800.6227,776.8498
790.14655,808.68134,800.6227,799.81683
786.9231,809.89014,801.4286,795.78754
788.93774,813.1135,805.05493,791.75824
788.93774,808.68134,802.6374,792.5641
790.14655,804.65204,803.0403,792.1612
790.14655,803.44324,803.0403,790.9524
792.96704,802.6374,800.2198,791.3553
794.57874,805.8608,800.2198,790.14655
787.72894,805.8608,800.6227,787.326
784.10254,807.8755,801.02563,789.7436
786.52014,808.2784,803.44324,785.31134
789.7436,803.44324,803.0403,791.3553
790.14655,801.8315,803.44324,793.36993
785.7143,802.6374,804.2491,788.5348
779.67035,800.2198,804.65204,796.99634
778.46155,797.3993,798.20514,792.96704
788.93774,803.0403,795.38464,791.75824
787.326,804.65204,801.4286,792.96704
782.8938,801.02563,799.81683,784.10254
796.5934,805.8608,803.8461,785.31134
794.57874,809.0842,811.50183,792.96704
789.7436,807.47253,811.0989,789.34064
789.7436,806.26373,803.0403,779.2674
791.3553,807.0696,805.05493,775.64105
793.7729,807.0696,808.2784,788.1319
787.326,803.8461,801.02563,790.14655
794.9817,807.8755,803.44324,792.96704
798.20514,807.8755,808.2784,799.41394
791.3553,801.02563,804.2491,798.20514
788.5348,799.41394,802.6374,795.78754
784.5055,799.011,801.4286,794.9817
783.69965,801.8315,801.4286,796.1905
783.2967,801.8315,800.2198,794.17584
787.326,803.8461,803.44324,798.60803
795.78754,805.8608,807.8755,799.81683
802.23444,805.05493,802.23444,799.011
804.2491,807.8755,803.8461,806.26373
796.99634,805.4579,807.0696,794.57874
797.3993,799.81683,805.4579,805.4579
802.6374,800.6227,809.0842,814.7253
801.4286,802.23444,809.0842,798.20514
799.011,801.02563,803.8461,797.3993
797.8022,806.6667,804.65204,803.44324
798.60803,811.0989,809.0842,804.2491
796.99634,807.47253,808.68134,796.1905
795.78754,807.0696,806.6667,790.14655
802.6374,807.8755,801.4286,790.14655
804.2491,809.0842,797.8022,788.93774
801.8315,807.8755,801.02563,799.41394
802.6374,810.293,801.8315,805.05493
802.6374,809.4872,803.44324,809.0842
805.8608,802.6374,807.0696,806.26373
803.8461,803.44324,808.2784,813.1135
807.0696,804.2491,807.47253,802.23444
803.0403,803.44324,805.05493,806.6667
805.4579,804.65204,801.8315,809.4872
805.8608,808.2784,803.44324,809.89014
807.8755,806.6667,807.8755,809.0842
806.26373,803.0403,810.293,813.91943
801.4286,801.8315,807.8755,816.7399
806.6667,801.8315,807.0696,815.5311
800.6227,803.8461,803.44324,796.1905
800.2198,805.4579,813.1135,804.65204
803.8461,803.44324,804.2491,809.89014
792.1612,805.05493,812.71063,805.4579
793.36993,803.8461,801.02563,796.1905
794.17584,801.8315,800.2198,803.0403
781.685,796.1905,806.26373,792.1612
783.69965,798.60803,810.696,789.7436
791.75824,801.4286,808.2784,794.9817
788.93774,797.8022,803.0403,784.90845
788.1319,796.99634,803.8461,788.93774
790.9524,801.4286,803.8461,793.7729
797.8022,806.26373,803.0403,791.75824
803.44324,803.8461,806.6667,784.5055
802.6374,804.2491,809.89014,784.10254
805.05493,806.26373,808.2784,794.9817
807.0696,807.8755,806.6667,788.5348
799.41394,808.68134,810.293,785.7143
793.36993,802.23444,809.89014,790.54944
792.5641,800.2198,808.2784,792.5641
798.20514,801.8315,808.2784,805.4579
797.3993,801.4286,810.696,805.05493
789.34064,803.8461,807.8755,801.02563
792.96704,801.4286,805.8608,806.26373
803.44324,799.41394,808.68134,807.47253
804.65204,804.2491,807.8755,805.8608
800.6227,806.26373,801.4286,804.2491
799.41394,807.8755,799.011,803.44324
798.60803,807.8755,803.0403,799.41394
797.8022,801.4286,800.2198,796.1905
801.4286,803.44324,803.8461,796.99634
794.9817,802.23444,807.8755,788.5348
788.5348,796.99634,800.2198,778.86444
790.9524,798.20514,797.8022,786.9231
789.7436,797.3993,799.011,795.38464
782.0879,792.1612,796.5934,782.8938
777.25275,794.17584,794.17584,772.4176
778.46155,794.9817,798.60803,776.4469
776.4469,792.1612,797.3993,774.0293
781.28204,796.5934,794.9817,773.22345
785.7143,799.81683,797.8022,778.86444
781.28204,798.20514,797.3993,783.69965
780.4762,796.99634,796.99634,777.6557
785.7143,799.81683,798.20514,780.87915
795.78754,805.4579,799.81683,795.38464
799.81683,805.8608,803.8461,791.75824
790.54944,805.4579,799.81683,773.22345
784.5055,809.4872,792.96704,785.7143
792.5641,809.4872,800.6227,796.99634
798.20514,805.05493,807.8755,796.1905
797.8022,806.26373,804.2491,796.99634
800.2198,810.696,798.20514,792.5641
799.81683,813.91943,796.1905,790.14655
800.2198,811.9048,796.1905,784.10254
805.05493,811.50183,796.99634,799.011
807.0696,812.3077,793.7729,803.8461
807.8755,809.4872,789.7436,796.99634
806.6667,809.4872,790.9524,801.02563
808.68134,815.12823,792.96704,805.8608
808.2784,818.7546,792.5641,800.6227
811.9048,814.7253,795.38464,793.36993
816.337,810.696,797.8022,799.41394
812.3077,812.71063,791.75824,795.78754
815.12823,815.5311,792.1612,794.9817
812.71063,811.0989,795.38464,797.3993
802.23444,804.65204,794.9817,799.011
802.6374,804.2491,803.44324,796.5934
805.05493,805.4579,808.68134,799.011
799.011,798.20514,800.2198,795.38464
803.44324,802.6374,802.23444,795.78754
799.41394,810.293,806.26373,803.44324
794.57874,805.4579,802.6374,801.02563
799.011,809.0842,801.8315,796.99634
798.20514,808.68134,799.011,795.38464
803.8461,803.44324,803.0403,799.81683
803.8461,805.05493,805.05493,796.1905
803.0403,803.0403,799.41394,803.44324
806.26373,806.26373,803.8461,819.9634
811.50183,808.68134,807.0696,815.9341
815.9341,808.68134,806.6667,818.3516
808.68134,811.50183,803.0403,811.9048
805.05493,807.47253,799.011,804.65204
810.696,805.4579,797.3993,806.6667
812.3077,799.81683,794.17584,806.6667
816.7399,799.81683,794.9817,805.8608
814.3223,807.47253,797.3993,801.8315
801.8315,799.41394,798.60803,801.02563
805.4579,796.99634,800.6227,804.2491
813.5165,801.8315,801.4286,800.6227
805.05493,797.8022,800.6227,800.6227
804.2491,793.7729,798.60803,807.47253
807.47253,796.99634,799.011,799.41394
799.41394,798.20514,799.81683,793.36993
796.99634,798.20514,801.4286,799.41394
797.8022,796.1905,803.0403,797.8022
794.9817,793.7729,799.81683,787.72894
790.14655,790.54944,798.20514,787.72894
782.8938,790.54944,797.3993,786.9231
781.28204,790.9524,795.38464,786.52014
781.685,788.1319,798.20514,799.81683
786.52014,791.75824,800.2198,797.8022
794.17584,794.17584,798.60803,801.8315
795.78754,799.81683,802.6374,811.50183
795.78754,800.6227,802.6374,799.41394
794.17584,797.3993,800.6227,795.38464
795.78754,799.011,802.6374,800.2198
800.2198,801.8315,800.6227,792.1612
803.44324,805.05493,804.2491,788.93774
805.05493,809.0842,809.0842,787.72894
809.4872,808.68134,806.6667,790.54944
813.1135,802.6374,799.011,809.0842
807.0696,801.8315,797.8022,800.2198
802.23444,802.6374,798.60803,792.5641
798.20514,799.81683,792.1612,791.3553
796.5934,801.02563,804.65204,790.54944
794.57874,795.78754,794.57874,788.1319
789.7436,795.78754,803.0403,788.1319
794.57874,797.3993,803.0403,791.75824
784.10254,791.75824,803.8461,787.326
787.326,792.1612,805.4579,788.5348
782.49084,792.5641,805.05493,781.685
777.6557,792.1612,801.8315,773.6264
777.25275,793.36993,798.20514,780.4762
775.2381,796.1905,796.99634,788.93774
775.2381,797.8022,803.0403,785.31134
776.8498,791.75824,802.23444,772.4176
775.64105,789.7436,797.3993,779.67035
778.46155,793.36993,798.60803,788.5348
781.685,792.5641,803.44324,785.7143
776.8498,788.5348,801.8315,774.43225
776.04395,790.14655,801.4286,775.64105
783.2967,796.99634,805.8608,784.5055
784.90845,798.60803,801.4286,781.28204
794.9817,796.99634,797.8022,772.4176
788.93774,797.8022,796.1905,777.25275
796.1905,792.5641,798.20514,776.04395
801.4286,793.7729,799.81683,784.90845
804.2491,796.5934,801.4286,780.4762
797.3993,790.9524,798.60803,778.46155
798.20514,791.3553,793.36993,785.7143
799.81683,793.7729,797.3993,782.8938
792.5641,791.3553,803.0403,785.7143
788.1319,792.96704,804.65204,792.5641
787.72894,793.36993,805.4579,778.0586
778.46155,792.5641,803.0403,768.3883
772.01465,796.5934,801.8315,780.87915
774.43225,797.8022,801.8315,788.5348
770.80585,795.78754,798.20514,797.3993
773.22345,795.78754,794.57874,794.17584
774.43225,794.17584,796.1905,776.8498
764.35895,790.9524,794.57874,767.98535
770,790.9524,794.57874,774.83514
778.46155,790.9524,795.78754,780.87915
780.07324,791.75824,796.1905,778.46155
780.87915,795.38464,799.011,776.8498
786.1172,797.8022,794.17584,777.6557
796.5934,798.20514,788.93774,785.7143
803.0403,796.1905,794.9817,783.69965
802.6374,796.1905,790.54944,786.1172
805.4579,800.2198,788.1319,793.36993
805.05493,801.8315,796.1905,787.326
803.0403,799.011,797.8022,787.72894
810.293,801.4286,800.2198,797.8022
814.3223,797.3993,803.8461,804.65204
809.4872,793.7729,805.4579,799.81683
810.293,800.6227,803.0403,798.60803
804.2491,797.8022,798.20514,798.60803
800.2198,795.78754,794.17584,794.17584
801.8315,793.7729,792.1612,793.36993
802.23444,798.20514,796.5934,798.60803
795.78754,800.6227,797.8022,794.17584
790.9524,798.60803,798.20514,790.14655
795.38464,801.8315,803.8461,796.5934
787.326,799.81683,805.05493,796.99634
775.64105,799.41394,803.0403,790.14655
778.86444,796.5934,803.44324,785.7143
787.326,794.9817,802.23444,786.1172
791.75824,797.8022,801.8315,782.0879
795.78754,801.4286,807.8755,786.1172
795.78754,801.4286,803.8461,794.17584
799.81683,801.4286,798.60803,795.38464
813.1135,807.8755,801.8315,806.26373
819.5604,806.26373,799.81683,811.9048
821.978,803.8461,800.2198,811.0989
824.7985,806.6667,801.4286,809.89014
829.6337,808.2784,800.6227,815.5311
829.6337,806.6667,805.8608,817.1429
826.8132,802.6374,807.47253,810.696
831.6484,806.26373,805.4579,808.2784
830.84247,809.89014,804.65204,806.26373
820.7692,804.65204,799.011,803.8461
820.3663,801.4286,796.1905,802.6374
819.9634,803.0403,801.02563,809.4872
820.7692,805.05493,802.6374,817.5458
815.5311,801.4286,803.0403,813.5165
806.6667,799.41394,800.6227,813.5165
804.65204,798.60803,795.38464,804.65204
796.99634,792.5641,793.7729,802.6374
789.7436,794.17584,797.3993,803.0403
783.69965,796.99634,797.8022,793.36993
788.1319,802.23444,802.6374,787.326
796.99634,807.47253,806.26373,794.17584
792.96704,803.44324,803.44324,798.20514
789.34064,804.2491,801.8315,786.9231
796.99634,805.8608,802.23444,790.14655
800.2198,801.02563,809.4872,796.1905
799.81683,801.4286,804.2491,796.99634
801.02563,801.8315,799.81683,800.6227
803.44324,795.78754,805.8608,809.89014
802.6374,792.96704,807.47253,808.2784
809.0842,794.9817,804.2491,808.68134
808.2784,794.9817,807.47253,804.65204
797.3993,799.011,810.293,797.8022
798.20514,799.011,803.0403,802.6374
795.38464,798.20514,804.65204,795.38464
796.99634,796.99634,805.8608,799.011
807.0696,797.3993,805.05493,800.6227
810.293,803.44324,802.23444,795.38464
810.293,800.6227,802.6374,807.47253
813.91943,799.41394,811.9048,811.9048
811.0989,801.4286,810.696,805.4579
801.8315,803.44324,806.26373,800.6227
799.41394,807.8755,804.65204,800.2198
789.7436,807.0696,804.2491,789.34064
801.8315,801.02563,807.47253,801.4286
783.2967,803.8461,802.23444,787.72894
780.87915,805.4579,803.8461,778.86444
776.04395,801.8315,805.05493,775.2381
772.4176,799.011,803.8461,783.69965
777.25275,799.011,803.44324,789.34064
776.8498,799.41394,804.2491,790.14655
774.83514,800.6227,805.8608,786.52014
782.8938,799.81683,807.0696,794.57874
789.7436,800.2198,805.4579,794.9817
792.96704,801.02563,805.05493,802.6374
800.6227,801.8315,804.2491,800.6227
808.68134,799.81683,805.8608,790.54944
813.1135,798.60803,803.0403,802.23444
811.9048,803.8461,798.20514,803.0403
810.293,804.2491,802.6374,801.4286
812.3077,800.6227,805.05493,796.99634
817.9487,806.26373,809.4872,798.20514
819.5604,811.0989,810.293,807.47253
815.9341,809.89014,806.26373,807.8755
811.9048,809.4872,809.0842,809.0842
813.1135,813.1135,809.0842,813.91943
803.8461,804.65204,801.02563,792.96704
801.8315,803.44324,796.99634,788.1319
799.011,803.0403,802.6374,791.75824
806.26373,805.05493,799.81683,795.78754
807.47253,807.8755,803.0403,803.0403
794.57874,805.05493,806.6667,791.75824
781.685,807.0696,803.8461,789.7436
777.6557,806.6667,805.05493,788.5348
784.5055,805.05493,800.2198,786.1172
784.90845,801.8315,803.44324,784.5055
792.96704,808.2784,801.02563,798.60803
796.5934,812.3077,807.8755,797.3993
783.2967,800.6227,806.26373,786.52014
792.5641,812.71063,807.47253,797.3993
788.5348,806.26373,807.8755,791.3553
799.81683,810.293,802.6374,803.0403
811.0989,811.0989,801.4286,796.5934
812.71063,814.3223,798.60803,789.34064
815.12823,815.5311,801.02563,796.99634
817.1429,816.337,806.26373,809.89014
809.89014,811.0989,799.011,796.1905
810.293,805.4579,795.78754,794.17584
811.50183,808.68134,800.6227,807.8755
815.5311,809.89014,803.8461,815.5311
821.978,807.0696,802.23444,811.9048
817.5458,807.8755,800.6227,803.0403
810.293,809.4872,805.05493,796.99634
811.0989,808.68134,802.23444,796.99634
814.3223,809.4872,799.81683,812.3077
810.696,809.4872,805.05493,812.71063
803.8461,810.293,807.8755,797.3993
797.3993,807.0696,806.26373,785.7143
802.23444,811.50183,812.3077,790.9524
788.5348,808.2784,802.6374,782.0879
779.67035,805.4579,815.12823,792.96704
794.17584,812.71063,811.9048,782.8938
787.72894,811.9048,809.0842,801.8315
788.1319,807.0696,815.9341,793.36993
787.72894,805.05493,810.696,790.54944
790.14655,809.4872,807.47253,803.0403
785.31134,809.0842,814.7253,792.1612
792.96704,811.0989,811.0989,790.9524
805.4579,815.9341,814.3223,797.8022
802.23444,810.696,811.9048,795.78754
799.41394,805.4579,805.8608,795.78754
804.65204,809.0842,806.26373,793.36993
808.68134,816.337,804.65204,790.9524
809.0842,814.7253,801.02563,790.14655
809.89014,808.68134,803.0403,791.75824
811.0989,813.91943,803.8461,796.99634
806.6667,812.3077,799.41394,798.60803
801.4286,804.2491,792.5641,787.72894
800.6227,807.47253,795.38464,777.25275
795.78754,809.4872,801.02563,777.25275
793.36993,809.0842,801.8315,780.07324
795.38464,809.89014,805.05493,780.87915
792.96704,809.0842,806.6667,782.0879
789.34064,807.47253,802.6374,781.28204
782.49084,807.0696,803.0403,771.2088
778.0586,809.0842,809.0842,775.2381
778.0586,806.26373,805.05493,780.87915
771.6117,804.65204,798.60803,774.43225
765.56775,803.44324,801.02563,774.0293
773.6264,806.26373,807.47253,778.46155
777.6557,811.0989,806.26373,772.8205
778.46155,809.89014,807.0696,774.83514
790.54944,809.4872,804.2491,787.72894
795.78754,808.2784,797.3993,784.10254
802.6374,811.9048,802.23444,778.0586
809.0842,814.7253,806.6667,775.64105
811.9048,817.5458,811.9048,793.7729
808.68134,815.12823,811.0989,805.4579
807.8755,809.0842,808.2784,788.5348
807.8755,813.1135,810.293,787.72894
801.4286,816.7399,809.0842,796.5934
803.0403,816.7399,806.6667,792.1612
805.4579,819.5604,806.6667,787.326
801.4286,821.978,803.8461,785.31134
797.3993,821.5751,803.0403,785.7143
792.96704,822.7839,803.44324,786.9231
788.93774,822.381,799.81683,782.0879
789.34064,821.1722,794.57874,784.90845
790.14655,824.3956,795.78754,791.75824
777.6557,824.7985,795.38464,782.0879
773.6264,825.2015,796.5934,777.25275
784.5055,823.1868,798.60803,774.43225
780.4762,821.1722,796.99634,765.56775
770.80585,824.7985,797.3993,772.01465
775.64105,826.8132,794.9817,779.67035
778.86444,824.7985,794.9817,780.4762
773.22345,821.978,797.3993,772.8205
772.8205,820.3663,794.17584,767.98535
777.6557,821.5751,795.38464,765.16486
784.5055,834.0659,800.6227,766.3736
789.34064,836.8865,797.8022,767.98535
790.54944,832.0513,789.7436,767.5824
801.8315,838.0952,792.1612,777.25275
807.8755,838.9011,796.5934,782.49084
805.8608,838.49817,793.7729,779.67035
801.8315,838.9011,797.3993,776.4469
808.2784,837.6923,796.1905,761.53845
810.696,836.4835,789.34064,756.30035
800.6227,837.6923,787.326,755.4945
799.41394,842.1245,795.38464,767.1795
789.34064,840.10986,796.5934,764.7619
782.49084,838.49817,803.8461,769.19415
781.685,839.707,810.696,770
800.6227,841.7216,792.1612,753.8828
780.07324,839.707,808.2784,768.3883
778.0586,835.6777,805.05493,773.22345
786.52014,839.707,801.4286,780.4762
792.96704,840.5128,799.81683,785.7143
789.34064,833.663,799.41394,785.31134
784.5055,830.84247,801.4286,778.0586
782.49084,829.6337,807.8755,767.98535
786.52014,832.8571,807.8755,774.0293
789.7436,832.8571,804.2491,782.49084
783.69965,831.6484,798.20514,774.83514
786.9231,837.28937,797.3993,772.8205
792.96704,839.707,800.6227,776.4469
794.57874,841.7216,799.011,782.49084
794.57874,838.49817,804.2491,782.49084
794.57874,834.0659,809.0842,780.07324
800.6227,836.4835,801.8315,794.17584
809.0842,832.0513,794.57874,796.5934
800.6227,832.8571,797.3993,779.2674
794.9817,838.0952,804.2491,786.1172
796.99634,835.2747,802.23444,786.1172
790.9524,831.6484,799.41394,782.0879
789.7436,829.2308,796.99634,776.04395
786.9231,830.4396,796.5934,780.07324
793.36993,831.2454,803.0403,782.49084
793.7729,828.8278,803.44324,784.90845
796.5934,828.4249,801.4286,785.7143
803.44324,835.2747,808.2784,789.7436
802.6374,833.663,808.68134,791.75824
803.44324,829.2308,803.44324,796.5934
803.44324,828.8278,804.2491,799.41394
800.6227,827.2161,805.8608,782.49084
797.3993,821.978,799.011,781.28204
796.5934,819.9634,797.3993,794.9817
792.1612,821.5751,802.23444,794.17584
788.93774,821.1722,794.17584,792.96704
795.38464,819.5604,794.9817,783.2967
793.36993,815.9341,799.011,783.2967
798.60803,817.1429,802.23444,788.93774
808.2784,825.2015,803.44324,792.1612
805.8608,823.5897,794.9817,789.34064
808.68134,819.5604,794.9817,786.1172
809.0842,818.7546,797.8022,788.1319
809.89014,817.1429,797.3993,791.75824
817.1429,819.5604,794.9817,796.1905
814.3223,817.5458,792.1612,796.1905
805.8608,817.5458,794.17584,789.7436
807.8755,821.5751,797.8022,787.326
801.4286,820.3663,794.9817,790.9524
804.65204,821.5751,792.5641,794.57874
813.1135,821.5751,790.54944,795.38464
808.2784,821.5751,791.75824,787.326
810.696,822.381,795.78754,781.28204
811.0989,824.7985,797.3993,786.9231
810.696,828.022,796.1905,799.81683
811.0989,829.2308,798.60803,803.8461
805.8608,822.7839,801.4286,794.57874
801.4286,813.5165,799.81683,793.7729
804.2491,817.1429,801.4286,797.3993
807.0696,824.3956,802.23444,794.9817
806.26373,818.3516,798.20514,795.78754
801.4286,815.9341,795.38464,788.93774
801.8315,819.9634,798.20514,791.75824
803.8461,821.978,801.4286,792.5641
811.50183,823.5897,806.6667,784.10254
813.5165,819.9634,804.65204,794.9817
812.3077,818.7546,803.44324,804.65204
816.337,820.7692,803.8461,805.8608
803.8461,811.0989,795.38464,797.8022
813.1135,819.15753,799.81683,803.44324
796.1905,813.1135,791.3553,795.38464
797.3993,818.3516,790.9524,787.72894
799.41394,810.696,795.78754,789.7436
796.5934,809.89014,798.20514,796.99634
790.14655,813.5165,793.7729,793.36993
797.3993,811.9048,794.9817,797.3993
801.8315,816.7399,802.6374,795.78754
804.65204,813.91943,799.41394,800.6227
794.9817,815.9341,799.011,791.3553
792.96704,818.3516,800.2198,794.57874
802.23444,816.7399,801.8315,802.6374
805.8608,813.91943,799.41394,796.1905
804.65204,816.337,803.0403,792.5641
807.0696,823.5897,801.8315,793.36993
807.47253,822.7839,801.8315,789.34064
806.6667,822.381,804.65204,780.4762
804.65204,823.9927,801.8315,770
807.0696,822.7839,800.6227,784.90845
806.6667,821.5751,798.20514,791.3553
800.6227,824.7985,797.3993,787.326
796.5934,826.8132,804.2491,784.10254
794.17584,822.381,806.26373,785.7143
790.9524,821.5751,803.44324,786.1172
782.8938,818.3516,797.8022,776.8498
779.2674,819.9634,792.96704,776.04395
780.4762,819.9634,794.9817,775.2381
776.8498,819.5604,799.41394,776.04395
774.43225,827.2161,803.0403,767.1795
770.80585,827.2161,800.2198,758.71796
766.3736,820.3663,794.9817,770.80585
762.74725,816.337,792.96704,763.1502
765.56775,817.5458,799.41394,758.71796
770,814.3223,807.47253,768.3883
763.95605,812.71063,802.6374,764.35895
760.32965,813.1135,800.2198,749.85345
759.92676,816.7399,802.6374,753.8828
767.1795,817.5458,799.41394,769.59705
772.8205,815.9341,803.44324,771.2088
772.8205,817.5458,807.0696,759.92676
774.43225,817.5458,804.2491,754.2857
778.86444,814.7253,802.23444,767.98535
782.49084,815.12823,803.0403,780.07324
783.2967,819.9634,805.8608,776.4469
779.67035,818.7546,803.44324,768.7912
780.4762,819.9634,802.23444,769.19415
789.34064,824.3956,801.02563,778.86444
793.36993,821.978,798.60803,786.9231
791.75824,821.978,803.44324,786.9231
788.93774,829.2308,805.4579,787.326
790.54944,832.4542,799.81683,780.87915
795.78754,828.4249,803.8461,785.7143
792.1612,826.8132,806.26373,792.96704
791.75824,827.619,799.41394,781.685
798.20514,829.2308,802.23444,778.86444
799.011,825.6044,804.2491,782.0879
790.14655,824.7985,801.4286,767.5824
786.1172,825.6044,800.6227,767.98535
786.52014,822.381,799.011,772.01465
790.9524,824.7985,801.4286,768.7912
790.9524,825.2015,802.23444,767.5824
790.9524,822.7839,805.05493,765.9707
798.20514,823.5897,806.6667,773.6264
797.3993,822.7839,803.44324,788.5348
794.9817,817.9487,803.8461,792.96704
796.99634,816.337,807.0696,786.9231
801.4286,818.7546,807.8755,794.17584
800.2198,817.9487,803.8461,802.6374
802.6374,817.5458,803.0403,801.8315
809.4872,821.5751,804.65204,809.0842
804.65204,822.381,804.65204,800.2198
799.41394,823.1868,805.8608,803.44324
793.36993,820.7692,806.6667,800.2198
798.20514,818.7546,807.8755,793.7729
804.65204,823.5897,808.68134,793.36993
802.23444,828.4249,813.1135,791.3553
809.0842,821.978,804.65204,806.26373
806.6667,828.022,812.3077,798.60803
799.81683,829.6337,805.05493,786.52014
801.4286,822.7839,816.337,787.72894
805.4579,831.6484,807.0696,797.3993
798.20514,830.84247,803.44324,788.93774
799.41394,829.2308,798.60803,782.49084
793.7729,830.84247,803.44324,767.5824
793.36993,827.2161,803.44324,769.59705
789.34064,823.1868,806.26373,753.47986
788.93774,822.7839,804.2491,748.6447
790.54944,822.7839,798.60803,760.7326
787.326,826.4103,803.0403,767.5824
790.14655,820.3663,798.60803,769.59705
796.5934,828.4249,798.60803,770.40295
786.9231,811.50183,790.9524,764.7619
779.67035,812.71063,795.38464,773.22345
782.49084,815.5311,799.011,784.90845
784.90845,813.91943,801.02563,787.326
788.1319,817.9487,804.65204,787.72894
795.38464,823.1868,808.2784,796.1905
793.36993,820.7692,809.4872,794.57874
788.5348,823.5897,803.8461,785.31134
796.99634,822.381,800.6227,786.52014
798.60803,819.9634,803.44324,783.69965
795.78754,826.4103,805.8608,784.90845
794.57874,829.6337,804.65204,789.34064
798.60803,825.6044,803.0403,801.4286
801.8315,828.4249,802.23444,809.0842
806.6667,830.4396,802.6374,801.4286
811.0989,829.6337,803.8461,798.20514
803.44324,832.0513,804.65204,798.20514
806.26373,833.2601,805.4579,798.20514
809.0842,837.28937,809.0842,798.20514
802.23444,836.08057,807.47253,789.7436
797.8022,828.4249,801.8315,781.685
794.9817,828.022,801.4286,780.4762
791.75824,830.0366,803.8461,782.0879
789.34064,831.2454,803.8461,780.4762
786.52014,831.2454,805.4579,768.7912
782.0879,830.0366,805.8608,771.2088
776.4469,827.619,802.6374,771.6117
777.25275,825.6044,804.2491,784.90845
778.0586,827.2161,806.26373,792.96704
778.0586,833.2601,807.8755,782.8938
778.46155,833.663,805.05493,782.8938
780.87915,828.022,801.4286,784.5055
785.31134,830.4396,801.8315,790.54944
777.6557,832.8571,796.99634,777.6557
785.31134,833.663,799.011,779.2674
790.9524,832.4542,801.8315,782.8938
788.1319,830.84247,799.41394,775.64105
795.78754,831.2454,799.81683,780.07324
802.6374,828.022,802.23444,788.1319
804.65204,826.4103,806.26373,794.57874
801.8315,824.7985,805.8608,787.326
799.011,823.9927,806.26373,776.04395
799.81683,825.2015,808.2784,786.9231
797.3993,829.6337,808.2784,787.326
803.44324,829.2308,810.696,797.8022
796.1905,830.0366,804.65204,778.46155
804.65204,828.4249,805.05493,772.8205
801.4286,827.619,805.05493,781.685
790.54944,824.7985,804.65204,788.1319
781.685,821.1722,805.05493,776.8498
773.6264,824.3956,806.26373,770.80585
775.64105,825.6044,805.4579,765.9707
776.8498,823.1868,807.47253,763.5531
772.01465,821.978,807.8755,769.59705
773.22345,824.3956,805.8608,778.0586
777.6557,822.7839,807.0696,777.6557
779.67035,822.381,805.05493,771.6117
777.25275,825.2015,804.65204,780.87915
777.6557,823.1868,803.0403,796.1905
786.52014,826.0073,800.6227,788.1319
785.7143,828.4249,801.02563,783.69965
780.87915,822.381,799.011,778.86444
781.685,820.7692,799.41394,778.0586
789.34064,826.8132,803.0403,782.8938
798.60803,830.0366,802.6374,780.07324
796.99634,828.4249,805.05493,777.25275
798.20514,831.2454,809.4872,776.8498
800.6227,831.6484,807.0696,782.0879
801.8315,830.4396,802.6374,777.25275
802.23444,825.6044,794.17584,769.19415
801.8315,825.6044,797.8022,778.0586
799.011,829.6337,805.8608,780.4762
788.93774,821.1722,799.81683,778.0586
778.86444,816.337,800.6227,777.25275
772.01465,814.3223,805.8608,770
767.1795,811.0989,803.44324,765.9707
764.35895,809.89014,803.0403,761.13556
765.9707,811.9048,805.4579,763.1502
754.68866,811.50183,804.65204,756.7033
751.4652,812.71063,803.8461,757.9121
757.9121,809.0842,801.8315,759.5238
747.03296,811.0989,806.6667,752.674
748.6447,814.3223,803.44324,744.21246
747.03296,814.3223,801.02563,749.0476
752.674,807.8755,805.8608,767.1795
760.32965,809.0842,804.2491,768.3883
765.9707,813.1135,799.81683,762.3443
770.80585,810.293,799.41394,760.7326
771.2088,810.696,805.8608,759.12085
774.0293,815.9341,808.68134,761.9414
773.22345,813.91943,800.6227,752.27106
772.4176,812.3077,797.3993,745.0183
770.80585,809.4872,796.5934,753.0769
775.2381,809.0842,793.36993,759.92676
780.87915,809.89014,796.1905,767.1795
775.2381,809.89014,794.9817,760.7326
770.80585,808.2784,794.17584,751.06226
772.8205,806.26373,801.8315,754.2857
778.0586,813.5165,806.26373,762.74725
780.07324,813.5165,802.6374,761.53845
778.46155,808.68134,802.23444,758.315
780.4762,814.3223,806.6667,776.04395
774.43225,813.1135,804.65204,780.4762
766.3736,807.0696,803.8461,770.40295
764.35895,805.05493,801.4286,775.2381
758.315,806.6667,802.23444,767.1795
755.4945,807.0696,809.4872,755.4945
761.53845,807.47253,813.5165,759.92676
767.5824,810.696,813.5165,765.16486
770.40295,807.0696,812.71063,770.80585
768.7912,809.89014,814.7253,775.2381
776.4469,817.9487,815.12823,780.07324
782.8938,813.91943,809.4872,776.04395
787.326,808.68134,809.0842,777.25275
789.34064,806.6667,811.9048,785.31134
792.96704,810.696,815.5311,791.3553
801.4286,811.9048,816.337,792.5641
808.68134,811.0989,811.9048,788.93774
811.50183,814.3223,807.8755,799.81683
810.293,814.3223,804.2491,792.96704
806.26373,817.9487,804.65204,786.9231
807.47253,820.3663,809.0842,788.93774
804.2491,815.9341,807.0696,785.31134
799.41394,817.1429,804.65204,780.4762
805.4579,820.7692,802.23444,796.5934
799.011,818.3516,796.5934,785.31134
801.02563,815.12823,795.78754,779.2674
800.2198,815.9341,797.3993,781.28204
794.9817,817.5458,799.41394,772.8205
784.90845,816.7399,796.1905,769.19415
804.65204,820.7692,807.0696,783.69965
776.4469,819.15753,792.5641,766.77655
773.22345,818.3516,790.54944,768.7912
775.2381,814.7253,801.4286,766.77655
771.2088,810.293,806.26373,768.7912
773.22345,815.5311,807.8755,769.59705
773.6264,819.5604,805.8608,769.59705
780.4762,818.7546,802.23444,769.59705
788.5348,821.5751,796.99634,770.80585
793.36993,822.381,795.78754,779.2674
801.4286,823.5897,799.011,782.0879
809.4872,827.2161,804.65204,783.69965
813.5165,829.6337,808.2784,796.1905
816.337,828.4249,806.6667,792.5641
809.89014,822.381,804.2491,786.1172
810.293,821.1722,805.05493,787.326
811.50183,826.0073,806.26373,782.8938
804.2491,829.2308,804.65204,783.2967
801.8315,822.7839,806.6667,780.4762
802.6374,815.12823,809.0842,778.46155
799.41394,819.15753,809.89014,777.6557
794.9817,825.6044,810.293,778.0586
792.5641,825.6044,802.6374,766.77655
788.93774,820.7692,797.3993,757.50916
781.28204,815.9341,798.20514,768.7912
780.4762,817.1429,800.6227,771.2088
777.25275,819.9634,799.41394,771.6117
765.56775,813.91943,799.81683,775.2381
765.56775,811.9048,802.23444,759.92676
764.7619,821.1722,805.05493,756.30035
759.12085,817.1429,800.2198,779.67035
765.9707,822.381,804.65204,773.22345
761.13556,821.978,803.8461,774.83514
777.25275,823.1868,804.65204,771.6117
787.72894,816.337,807.8755,788.5348
786.1172,818.7546,805.05493,781.685
795.78754,819.9634,806.26373,790.54944
809.4872,823.5897,807.47253,788.5348
803.44324,823.9927,807.0696,793.7729
799.41394,826.8132,803.0403,804.2491
802.6374,827.619,802.6374,799.011
803.0403,823.5897,801.8315,790.9524
800.2198,826.4103,801.4286,794.17584
794.17584,828.8278,801.4286,789.34064
787.326,823.1868,795.38464,782.0879
783.69965,821.5751,794.57874,778.0586
787.326,824.7985,802.6374,775.2381
792.96704,823.9927,809.4872,784.10254
792.96704,819.9634,807.8755,781.685
787.72894,819.9634,800.2198,771.2088
785.31134,826.8132,797.8022,774.0293
778.86444,823.9927,799.41394,770.80585
776.4469,821.1722,802.6374,775.64105
777.6557,827.619,804.65204,771.6117
770.40295,824.7985,804.65204,779.67035
774.43225,828.4249,809.0842,782.49084
775.2381,827.2161,811.9048,777.25275
766.77655,821.1722,806.26373,770.40295
767.98535,819.5604,807.47253,767.98535
770,822.7839,813.5165,766.77655
775.2381,821.5751,811.9048,770.40295
780.87915,823.5897,814.3223,787.72894
791.75824,827.2161,815.5311,795.38464
781.28204,829.2308,805.4579,774.83514
805.05493,827.2161,807.0696,802.6374
799.41394,826.8132,811.50183,791.3553
810.696,830.0366,802.23444,798.20514
811.9048,829.2308,803.0403,792.96704
817.1429,825.6044,807.8755,797.3993
813.1135,826.0073,807.8755,794.9817
805.05493,819.9634,803.44324,790.54944
803.0403,820.7692,803.44324,785.31134
799.81683,826.0073,805.05493,787.326
797.3993,821.978,803.8461,786.52014
799.011,821.1722,807.8755,772.01465
791.3553,821.978,807.0696,763.5531
784.10254,817.9487,802.23444,780.87915
777.6557,814.7253,799.41394,778.46155
770.80585,816.7399,800.2198,776.8498
772.8205,819.5604,805.4579,778.0586
776.04395,813.5165,805.05493,764.35895
776.04395,808.2784,802.23444,768.7912
779.2674,812.3077,802.23444,780.87915
777.6557,814.3223,803.44324,778.0586
775.2381,815.5311,801.02563,774.0293
779.67035,819.9634,803.0403,779.67035
784.5055,822.381,805.4579,786.9231
788.5348,825.2015,809.4872,794.17584
792.96704,828.4249,807.8755,792.1612
797.8022,831.6484,804.65204,785.7143
800.6227,827.2161,805.4579,783.2967
797.3993,821.978,804.2491,788.5348
790.54944,822.381,809.0842,796.99634
790.9524,817.9487,810.696,784.5055
797.3993,815.12823,805.8608,780.87915
802.23444,817.5458,804.2491,794.17584
797.8022,816.7399,800.6227,791.3553
793.7729,815.5311,796.99634,789.7436
801.4286,821.5751,802.6374,796.5934
806.26373,826.8132,805.8608,799.41394
801.02563,823.5897,800.6227,792.5641
803.44324,820.7692,798.60803,795.38464
800.6227,821.1722,800.6227,792.5641
795.38464,822.381,797.8022,785.7143
797.3993,823.9927,797.3993,784.10254
794.9817,821.978,807.0696,781.28204
786.9231,819.15753,810.696,788.1319
781.685,821.1722,810.293,795.78754
782.0879,822.381,808.68134,789.7436
777.25275,819.9634,806.26373,780.87915
772.01465,817.9487,806.26373,769.19415
772.01465,815.9341,807.47253,763.1502
784.90845,814.3223,809.4872,777.6557
783.69965,816.7399,804.65204,782.8938
773.22345,813.91943,799.81683,778.0586
784.5055,811.50183,803.44324,777.25275
790.9524,815.12823,806.6667,780.87915
792.96704,819.9634,802.23444,785.7143
794.17584,822.7839,794.17584,782.0879
793.36993,816.7399,793.7729,774.0293
796.1905,812.71063,797.3993,772.8205
792.1612,814.3223,801.4286,775.2381
792.1612,810.696,796.99634,769.59705
795.38464,819.9634,803.8461,789.7436
790.14655,820.3663,795.38464,783.69965
790.14655,823.1868,796.5934,772.01465
796.5934,819.9634,802.6374,774.43225
799.41394,817.9487,804.2491,790.54944
799.81683,822.7839,805.05493,796.1905
797.8022,820.3663,808.2784,788.93774
792.96704,816.337,806.26373,786.1172
789.34064,815.12823,801.8315,780.87915
783.69965,814.7253,805.05493,784.10254
784.5055,819.9634,807.47253,795.38464
781.685,821.5751,804.2491,787.72894
774.43225,821.1722,800.6227,776.8498
772.8205,815.12823,799.011,772.01465
770.80585,814.3223,796.5934,770
773.6264,819.9634,803.8461,775.2381
779.67035,816.7399,803.44324,770.80585
784.10254,815.12823,802.23444,778.46155
782.49084,817.1429,801.4286,774.43225
784.90845,817.1429,799.81683,767.98535
785.31134,816.7399,801.8315,770
788.1319,817.9487,803.8461,770
792.5641,817.5458,800.2198,776.8498
789.7436,815.5311,800.6227,768.3883
794.9817,816.7399,807.0696,770.40295
799.81683,823.9927,807.8755,779.2674
794.57874,817.9487,806.6667,772.01465
796.99634,821.5751,804.65204,772.01465
804.65204,828.022,807.8755,768.7912
792.96704,827.2161,806.6667,770.40295
805.05493,821.1722,805.8608,768.7912
793.36993,821.1722,809.0842,766.3736
800.2198,815.12823,805.4579,767.1795
796.99634,821.5751,808.2784,773.22345
790.9524,819.5604,805.8608,776.04395
789.34064,816.7399,803.0403,774.83514
788.1319,819.15753,809.89014,782.49084
780.87915,819.15753,809.89014,790.54944
776.8498,813.1135,804.2491,786.52014
775.2381,811.50183,808.2784,782.8938
773.22345,815.12823,809.4872,781.28204
772.4176,814.7253,808.2784,778.86444
770,811.9048,803.44324,784.10254
773.6264,811.50183,798.20514,782.49084
780.07324,813.1135,801.02563,773.22345
780.07324,815.9341,805.8608,786.9231
782.8938,818.3516,807.0696,791.3553
790.54944,819.15753,799.41394,786.1172
792.1612,822.381,793.36993,779.67035
790.14655,824.3956,795.78754,784.5055
801.8315,821.5751,801.8315,790.54944
805.05493,823.1868,801.02563,780.87915
801.02563,822.381,792.1612,771.6117
798.20514,821.1722,794.17584,767.1795
793.36993,821.1722,799.41394,770.80585
791.3553,817.9487,794.9817,768.3883
787.72894,816.337,794.9817,766.3736
788.5348,817.1429,795.78754,770.40295
783.69965,816.7399,795.38464,765.56775
777.6557,818.3516,799.81683,765.9707
781.28204,817.1429,799.81683,774.0293
776.04395,815.9341,802.23444,763.5531
774.83514,817.9487,799.011,765.56775
774.0293,811.50183,796.5934,772.01465
771.6117,807.47253,803.44324,776.4469
772.8205,811.0989,807.47253,775.64105
772.01465,812.71063,806.6667,784.5055
769.59705,818.7546,806.26373,794.57874
770,808.68134,803.44324,778.0586
779.2674,815.9341,805.4579,788.1319
787.326,818.7546,807.8755,789.7436
782.0879,813.1135,799.41394,768.7912
772.4176,817.1429,806.26373,785.31134
791.3553,816.7399,805.05493,789.7436
799.011,819.5604,802.6374,796.5934
804.2491,826.8132,805.8608,798.60803
812.71063,821.1722,809.89014,794.17584
816.337,817.1429,810.293,792.96704
819.5604,826.8132,809.89014,789.7436
814.3223,825.6044,807.47253,787.326
810.696,820.3663,802.6374,796.1905
809.0842,817.5458,797.3993,792.1612
803.44324,817.9487,803.44324,789.7436
799.011,820.7692,808.2784,786.52014
797.8022,818.7546,801.02563,782.8938
790.54944,817.5458,795.38464,782.0879
780.87915,822.381,799.41394,780.07324
783.69965,821.978,806.6667,771.6117
784.90845,815.12823,803.8461,771.6117
770.40295,807.47253,792.5641,769.59705
764.35895,808.2784,796.5934,762.3443
761.9414,810.293,807.0696,760.32965
757.9121,809.0842,805.4579,759.12085
759.5238,807.47253,805.8608,759.5238
752.674,805.05493,807.8755,757.50916
759.12085,810.293,809.4872,764.35895
767.98535,812.71063,803.8461,767.98535
768.3883,810.696,790.9524,765.56775
779.2674,818.3516,791.75824,769.19415
785.31134,821.5751,796.1905,768.7912
789.34064,819.5604,801.02563,783.2967
788.93774,813.5165,805.8608,783.2967
783.2967,810.696,808.68134,786.1172
802.23444,814.7253,799.81683,779.2674
803.0403,818.7546,793.7729,783.2967
790.9524,815.5311,805.05493,793.36993
800.2198,821.5751,792.1612,781.685
796.1905,820.7692,799.41394,782.8938
800.6227,815.9341,802.23444,780.07324
800.2198,821.1722,802.6374,787.72894
801.4286,826.8132,796.99634,780.4762
794.57874,820.3663,802.6374,778.46155
796.99634,823.9927,797.3993,776.4469
790.9524,821.1722,802.23444,780.87915
788.93774,820.3663,801.4286,782.8938
779.67035,814.7253,796.99634,773.6264
766.3736,810.293,796.1905,769.19415
759.5238,810.293,801.8315,776.8498
758.71796,814.3223,801.8315,782.0879
755.89746,813.91943,803.8461,774.43225
753.0769,807.47253,801.4286,761.9414
763.1502,811.50183,796.99634,766.3736
770.80585,812.3077,796.99634,773.22345
777.25275,809.89014,799.81683,774.43225
780.87915,811.0989,801.02563,773.6264
785.7143,813.5165,799.011,767.1795
782.49084,819.5604,799.41394,761.13556
778.86444,816.7399,801.4286,774.43225
777.6557,811.50183,802.23444,776.8498
784.10254,809.89014,792.1612,776.8498
784.90845,809.89014,799.81683,782.8938
776.4469,811.0989,795.38464,773.22345
786.9231,812.71063,802.6374,783.2967
791.3553,815.5311,805.8608,781.685
796.1905,822.381,805.05493,789.7436
796.1905,822.7839,796.99634,779.67035
795.38464,817.5458,801.02563,773.6264
796.99634,817.9487,804.65204,789.7436
792.1612,819.9634,802.23444,783.2967
783.2967,821.1722,800.6227,765.9707
776.04395,823.9927,792.96704,763.1502
768.3883,823.9927,789.7436,767.5824
761.9414,823.9927,796.1905,764.7619
760.7326,820.7692,797.8022,764.35895
756.30035,816.7399,796.5934,768.3883
759.92676,821.5751,799.011,769.19415
766.3736,823.9927,801.8315,767.1795
766.77655,823.1868,802.23444,767.98535
772.01465,826.0073,805.05493,775.64105
776.04395,823.5897,801.4286,772.8205
782.0879,819.15753,795.78754,772.8205
787.72894,815.9341,795.38464,766.77655
782.0879,818.3516,794.17584,767.98535
781.28204,820.3663,792.96704,776.8498
792.5641,821.1722,794.57874,777.25275
794.57874,827.2161,796.5934,767.5824
786.52014,821.5751,793.36993,763.5531
792.1612,817.5458,794.57874,763.5531
799.011,823.5897,800.6227,760.32965
793.36993,821.5751,800.6227,776.4469
787.326,824.7985,796.99634,778.46155
786.9231,826.4103,797.3993,767.98535
792.96704,821.978,799.41394,768.7912
794.57874,822.381,798.20514,775.2381
785.7143,820.7692,799.011,770
780.4762,817.9487,797.3993,767.1795
783.2967,820.7692,792.5641,770.40295
784.5055,823.9927,798.60803,775.64105
783.2967,824.7985,802.6374,776.04395
777.6557,824.3956,803.0403,772.8205
772.4176,821.978,805.8608,761.9414
772.8205,820.3663,799.41394,762.3443
772.01465,821.5751,792.5641,773.6264
776.4469,824.3956,803.8461,782.8938
781.28204,822.381,811.9048,782.0879
786.9231,817.9487,807.0696,772.8205
782.8938,817.5458,797.3993,773.22345
782.0879,817.1429,792.5641,776.04395
788.5348,814.7253,796.5934,785.31134
787.326,817.9487,796.1905,789.7436
788.5348,815.5311,791.3553,780.07324
794.57874,812.3077,794.17584,784.10254
799.011,814.7253,804.65204,786.1172
798.20514,814.7253,806.26373,777.25275
802.23444,814.7253,801.4286,789.7436
799.81683,816.7399,798.60803,796.99634
793.7729,817.1429,801.02563,790.14655
793.36993,817.5458,805.4579,792.5641
800.2198,815.5311,806.6667,794.57874
801.02563,814.3223,804.65204,792.5641
794.9817,818.3516,800.2198,791.3553
789.34064,814.3223,799.011,784.10254
774.43225,809.0842,799.41394,774.0293
773.22345,810.293,797.8022,770
781.685,811.9048,800.6227,778.0586
776.04395,814.7253,805.05493,782.0879
775.2381,817.9487,803.44324,786.1172
778.86444,814.7253,799.81683,788.93774
778.46155,809.4872,800.6227,781.28204
788.93774,809.0842,799.41394,788.93774
796.99634,808.68134,797.3993,800.6227
801.4286,812.71063,798.20514,795.78754
802.23444,815.5311,793.7729,792.1612
801.4286,816.337,795.78754,789.7436
806.26373,817.5458,806.6667,791.75824
806.26373,818.7546,807.0696,790.9524
806.6667,819.9634,800.2198,786.52014
812.3077,821.1722,800.2198,792.1612
808.2784,822.381,792.5641,785.7143
803.8461,817.9487,788.1319,784.5055
803.44324,815.12823,796.99634,796.99634
800.2198,819.15753,798.60803,788.5348
801.8315,822.7839,798.60803,781.685
802.6374,824.7985,801.4286,784.10254
799.41394,821.978,805.4579,784.90845
796.5934,819.15753,803.8461,789.7436
799.81683,824.3956,807.47253,779.67035
794.9817,817.1429,809.0842,786.9231
787.326,819.5604,807.8755,776.04395
778.86444,817.9487,805.05493,776.8498
777.6557,812.3077,802.6374,781.685
774.0293,813.1135,805.05493,769.19415
765.9707,818.7546,803.44324,762.3443
764.7619,821.1722,798.60803,766.3736
767.5824,815.5311,801.4286,771.2088
762.74725,811.50183,802.6374,772.4176
760.32965,813.5165,798.20514,772.01465
767.5824,813.5165,798.20514,777.25275
773.6264,812.71063,802.23444,777.25275
775.64105,814.3223,803.44324,777.25275
780.4762,815.12823,803.0403,778.46155
788.1319,817.5458,801.02563,770.80585
792.1612,819.5604,799.41394,768.7912
789.34064,815.9341,803.0403,776.8498
783.2967,814.7253,806.26373,766.77655
783.2967,813.5165,803.0403,770
790.9524,812.3077,801.02563,778.46155
793.36993,815.9341,803.0403,770.80585
794.57874,811.50183,801.8315,778.46155
792.5641,806.26373,798.20514,779.2674
788.93774,810.293,800.2198,776.04395
794.57874,813.5165,799.011,780.87915
786.1172,811.9048,796.99634,780.87915
774.0293,811.9048,794.17584,766.3736
781.685,814.3223,796.99634,766.3736
782.0879,811.0989,796.5934,774.43225
776.8498,811.0989,792.5641,774.43225
774.43225,817.9487,798.20514,767.98535
774.0293,813.91943,795.38464,763.5531
776.4469,810.293,796.1905,763.1502
777.6557,813.91943,803.0403,760.7326
774.43225,816.7399,798.20514,764.7619
763.1502,817.5458,796.5934,767.1795
767.5824,815.9341,802.23444,765.16486
772.8205,820.7692,805.4579,770.40295
765.16486,821.978,803.0403,765.16486
762.74725,812.3077,798.60803,757.50916
771.2088,812.71063,793.7729,763.95605
780.87915,817.1429,793.7729,762.74725
770.80585,812.71063,797.8022,751.8681
764.35895,812.3077,796.99634,758.71796
766.77655,812.71063,795.78754,764.35895
765.56775,807.8755,796.99634,769.19415
765.9707,807.0696,794.17584,767.5824
766.3736,808.2784,792.96704,751.8681
777.6557,816.337,798.20514,764.7619
781.685,818.7546,799.41394,771.6117
776.8498,819.15753,803.8461,754.68866
775.2381,816.337,798.20514,746.2271
773.22345,816.7399,795.78754,755.09155
774.0293,819.15753,796.5934,761.9414
777.25275,818.3516,803.44324,766.77655
770.80585,824.3956,797.3993,759.5238
770,824.3956,798.20514,751.06226
770.40295,822.7839,799.41394,753.0769
756.7033,819.15753,798.60803,751.4652
749.0476,811.9048,798.60803,747.8388
746.2271,808.68134,800.6227,743.4066
741.39197,804.65204,796.5934,738.97437
747.4359,808.2784,797.8022,750.2564
751.06226,811.0989,802.6374,758.315
757.50916,809.4872,799.011,757.50916
766.3736,815.9341,797.3993,769.59705
761.9414,812.3077,798.20514,769.59705
770,805.05493,799.011,770.40295
790.9524,811.50183,798.20514,780.07324
787.326,816.337,799.011,780.87915
786.1172,806.6667,799.011,778.0586
781.28204,804.65204,800.6227,778.86444
785.31134,813.5165,795.78754,774.43225
790.14655,811.0989,792.1612,773.22345
791.75824,819.15753,797.8022,782.8938
785.31134,819.5604,805.05493,777.6557
779.67035,811.9048,800.6227,769.19415
782.8938,812.71063,799.011,770
784.5055,812.3077,799.81683,770
776.4469,808.68134,799.011,770
770.40295,808.68134,796.5934,762.3443
774.43225,809.0842,799.41394,757.9121
768.7912,809.0842,803.44324,756.30035
765.56775,811.50183,807.0696,757.50916
765.9707,811.9048,809.0842,765.16486
767.1795,810.293,810.696,763.1502
768.7912,806.6667,807.0696,765.56775
758.315,804.2491,805.05493,757.9121
753.8828,803.8461,805.8608,749.85345
763.5531,807.8755,801.8315,759.92676
774.43225,814.3223,798.60803,768.7912
774.43225,812.3077,796.99634,772.01465
774.83514,808.2784,801.02563,767.1795
780.07324,813.5165,803.8461,770.80585
776.8498,816.337,800.6227,778.86444
774.43225,810.696,798.60803,771.6117
780.87915,812.71063,799.011,767.1795
788.93774,817.1429,801.8315,777.25275
786.9231,818.7546,802.23444,782.8938
778.86444,815.5311,797.8022,776.4469
774.83514,812.71063,796.5934,764.35895
780.07324,813.5165,797.8022,766.3736
786.9231,813.5165,796.1905,776.4469
787.326,813.91943,798.60803,782.0879
780.87915,811.50183,802.6374,774.83514
774.43225,807.0696,802.23444,776.4469
776.04395,806.26373,802.6374,778.86444
776.8498,812.3077,805.4579,773.6264
774.43225,815.9341,803.0403,767.5824
775.64105,817.5458,805.05493,761.13556
778.86444,830.84247,818.7546,775.64105
790.14655,844.94507,833.2601,784.90845
799.011,850.58606,834.87177,780.87915
792.1612,846.9597,823.1868,780.07324
788.93774,837.28937,816.7399,778.86444
793.36993,838.0952,817.5458,787.72894
792.96704,838.9011,817.1429,787.326
794.57874,837.6923,819.9634,790.9524
797.3993,839.304,821.978,800.6227
798.60803,835.2747,817.5458,798.20514
802.6374,834.0659,816.7399,808.68134
803.8461,832.4542,817.5458,809.89014
803.8461,831.2454,817.9487,808.68134
807.8755,832.0513,810.293,807.0696
810.293,837.6923,809.4872,802.23444
807.0696,836.08057,816.337,805.8608
806.6667,830.4396,817.9487,796.5934
807.8755,835.6777,817.9487,794.17584
801.02563,833.663,815.12823,790.54944
800.6227,832.4542,812.3077,788.5348
802.23444,832.8571,809.89014,799.81683
799.41394,827.619,809.0842,799.41394
797.8022,826.4103,805.4579,794.57874
794.9817,823.5897,804.2491,790.14655
791.75824,822.381,809.89014,782.0879
778.0586,823.1868,812.3077,768.7912
766.3736,823.1868,809.4872,766.3736
770,821.1722,806.6667,766.3736
772.4176,820.7692,803.44324,766.3736
766.3736,819.5604,803.0403,771.6117
775.64105,819.9634,808.2784,771.6117
778.86444,819.5604,811.0989,776.4469
778.0586,817.1429,811.50183,785.31134
780.4762,817.9487,809.4872,782.49084
774.43225,821.1722,807.47253,781.685
785.31134,819.15753,809.89014,797.8022
794.9817,819.9634,811.50183,802.23444
791.75824,821.1722,807.47253,798.20514
787.72894,816.7399,802.23444,792.96704
791.3553,818.7546,801.02563,792.96704
804.65204,819.5604,803.44324,799.011
807.47253,819.5604,807.0696,809.4872
801.8315,820.3663,809.4872,799.81683
796.1905,815.5311,806.26373,785.7143
793.36993,815.9341,800.2198,795.78754
791.3553,817.1429,799.41394,795.78754
792.5641,820.7692,801.02563,792.5641
791.3553,823.9927,802.6374,793.36993
782.8938,822.381,804.2491,787.326
778.86444,817.5458,804.2491,774.0293
772.8205,815.5311,801.8315,757.9121
766.77655,817.1429,798.60803,760.32965
768.7912,815.9341,801.4286,755.89746
772.01465,812.3077,800.2198,759.92676
766.3736,812.3077,797.3993,769.59705
765.16486,810.696,802.23444,762.74725
767.98535,807.0696,803.0403,768.3883
769.19415,807.0696,800.2198,777.25275
784.5055,817.1429,809.0842,785.7143
794.9817,829.6337,818.3516,794.9817
794.17584,833.2601,822.381,803.0403
799.41394,834.4689,826.4103,806.26373
802.6374,836.8865,824.3956,810.696
807.0696,838.0952,821.1722,807.0696
809.0842,837.28937,819.15753,795.78754
809.4872,833.2601,813.1135,804.65204
809.4872,831.2454,809.0842,811.50183
809.4872,834.87177,814.3223,813.5165
815.5311,838.0952,813.1135,812.3077
815.9341,837.6923,811.9048,805.05493
804.2491,834.0659,810.293,799.41394
804.65204,836.08057,811.9048,795.38464
806.26373,840.10986,816.337,791.75824
795.78754,836.4835,810.696,786.9231
778.86444,836.4835,810.293,793.7729
765.56775,834.87177,812.71063,792.1612
763.1502,830.0366,813.5165,776.8498
752.674,830.4396,815.12823,767.1795
753.0769,828.4249,805.4579,772.4176
765.56775,827.2161,799.011,778.46155
767.98535,825.6044,805.8608,768.3883
772.8205,826.0073,809.0842,773.6264
778.86444,827.619,813.5165,781.28204
782.49084,821.5751,812.3077,781.28204
780.4762,817.9487,803.8461,774.0293
784.10254,821.1722,803.0403,767.98535
792.1612,823.1868,807.0696,786.1172
796.1905,826.0073,809.89014,793.36993
793.36993,824.3956,804.65204,797.8022
792.5641,824.7985,809.4872,796.99634
794.17584,828.4249,801.8315,787.72894
794.9817,826.0073,805.4579,793.7729
801.02563,819.15753,803.0403,803.0403
795.78754,817.5458,801.8315,801.8315
792.5641,818.3516,800.6227,791.75824
792.5641,814.3223,794.9817,774.0293
789.7436,816.7399,796.1905,766.77655
792.5641,821.5751,798.60803,784.5055
790.14655,820.3663,792.1612,780.87915
778.86444,818.3516,789.7436,761.13556
778.0586,820.3663,791.75824,773.22345
776.8498,818.3516,792.96704,784.10254
769.59705,819.5604,797.3993,773.22345
766.77655,821.1722,796.99634,774.43225
772.01465,815.9341,799.011,780.87915
774.43225,819.5604,806.6667,773.6264
777.25275,822.7839,807.0696,773.22345
777.25275,820.3663,801.8315,774.43225
774.0293,817.1429,800.6227,768.3883
781.685,813.91943,800.2198,776.04395
784.10254,808.68134,798.20514,782.0879
780.87915,807.0696,799.011,773.6264
783.69965,808.2784,801.02563,775.64105
782.49084,806.6667,798.20514,774.83514
780.4762,812.71063,794.57874,767.98535
786.1172,811.9048,793.7729,784.10254
780.4762,814.3223,791.75824,770.80585
790.9524,814.7253,796.1905,780.4762
796.1905,818.7546,799.011,774.43225
803.44324,818.7546,796.5934,786.9231
799.81683,816.7399,787.72894,782.49084
795.38464,819.15753,791.3553,773.22345
790.14655,817.1429,793.7729,774.83514
791.75824,818.3516,793.7729,774.0293
791.3553,821.5751,799.011,775.2381
789.34064,821.1722,797.3993,772.4176
789.34064,817.5458,797.3993,772.4176
784.5055,816.7399,795.78754,770.80585
779.67035,813.5165,790.14655,770
774.0293,809.4872,790.9524,782.49084
773.22345,810.293,795.38464,780.07324
774.83514,809.89014,796.99634,777.6557
777.6557,815.12823,800.6227,778.46155
778.86444,815.5311,796.1905,786.52014
774.83514,812.71063,798.60803,770.80585
788.1319,816.7399,796.1905,786.9231
795.38464,816.7399,803.0403,782.8938
796.1905,815.9341,803.8461,774.43225
795.38464,817.9487,801.02563,783.2967
795.78754,818.7546,799.81683,792.5641
804.2491,819.9634,798.60803,787.326
799.41394,819.5604,796.99634,777.25275
797.8022,818.7546,796.5934,788.1319
806.26373,822.381,799.81683,801.4286
811.50183,828.4249,805.4579,813.1135
803.0403,819.15753,801.02563,789.7436
810.696,826.8132,803.8461,804.65204
798.60803,816.7399,800.6227,790.54944
802.6374,817.5458,803.44324,797.3993
796.99634,814.3223,799.81683,794.57874
788.5348,813.1135,796.99634,788.1319
781.28204,814.7253,799.41394,781.28204
778.86444,820.7692,801.02563,780.07324
790.54944,821.5751,799.41394,778.0586
795.78754,817.9487,799.81683,776.4469
791.3553,819.15753,801.02563,776.04395
790.9524,820.3663,796.1905,771.6117
799.41394,823.5897,797.8022,771.2088
800.6227,828.022,802.23444,774.43225
798.20514,827.619,804.2491,790.9524
796.5934,820.3663,805.05493,795.78754
794.57874,818.7546,803.44324,792.1612
794.57874,819.5604,803.44324,790.54944
800.2198,818.7546,803.44324,797.3993
799.81683,815.9341,801.4286,793.36993
796.5934,811.50183,798.60803,780.07324
803.0403,813.1135,799.011,789.34064
800.2198,815.9341,801.4286,782.49084
798.60803,813.91943,804.2491,770.40295
801.8315,814.7253,803.8461,786.9231
802.23444,814.7253,803.8461,799.41394
806.6667,811.50183,800.6227,797.8022
806.26373,811.50183,801.8315,785.31134
798.60803,809.0842,805.4579,782.0879
796.99634,811.50183,801.02563,796.5934
794.17584,814.3223,795.78754,790.14655
788.1319,813.5165,797.3993,778.46155
786.9231,812.71063,800.2198,781.685
784.5055,812.3077,802.23444,785.31134
782.49084,814.3223,805.05493,780.4762
782.8938,815.9341,804.65204,777.6557
777.6557,813.1135,801.4286,780.87915
769.59705,805.4579,799.41394,779.2674
774.43225,806.6667,803.44324,765.16486
780.07324,808.68134,803.0403,763.1502
778.46155,809.0842,798.60803,782.49084
786.1172,809.89014,800.6227,780.07324
788.1319,809.89014,805.4579,784.10254
787.326,811.50183,807.0696,791.75824
794.57874,811.0989,803.8461,788.1319
798.60803,811.50183,805.05493,787.326
803.8461,816.7399,808.2784,785.31134
809.0842,817.1429,806.6667,795.78754
804.65204,812.71063,807.47253,798.20514
802.6374,813.5165,808.2784,790.9524
805.4579,813.1135,803.44324,806.26373
803.44324,810.696,801.02563,807.47253
801.02563,811.9048,803.44324,788.1319
804.65204,813.91943,806.6667,793.36993
807.0696,814.3223,807.0696,796.5934
803.44324,811.9048,804.2491,793.7729
795.78754,810.293,801.4286,788.93774
796.5934,813.91943,802.6374,783.2967
799.011,814.7253,799.81683,781.28204
794.9817,811.0989,800.2198,779.67035
790.14655,813.5165,803.0403,781.28204
795.78754,814.3223,798.20514,775.64105
796.1905,810.293,800.6227,768.7912
783.2967,807.0696,795.78754,772.8205
788.1319,806.26373,799.81683,770.80585
783.69965,810.696,801.02563,769.59705
790.14655,815.9341,800.6227,780.87915
780.87915,813.5165,804.65204,766.3736
783.2967,814.3223,801.8315,767.1795
787.72894,812.71063,803.44324,778.46155
791.3553,805.05493,804.2491,782.8938
799.81683,807.0696,805.05493,787.326
803.8461,811.50183,804.2491,789.7436
805.4579,811.9048,804.65204,787.72894
804.2491,815.5311,805.4579,794.17584
807.8755,814.3223,811.0989,798.20514
813.91943,812.71063,811.9048,800.2198
810.696,813.91943,806.26373,796.5934
803.8461,812.71063,803.0403,793.36993
801.8315,811.9048,800.6227,788.93774
796.1905,815.12823,802.6374,790.54944
798.20514,815.5311,809.0842,793.36993
801.4286,811.0989,805.05493,786.1172
800.2198,809.0842,796.5934,781.685
798.60803,807.47253,805.05493,794.9817
798.60803,810.293,812.71063,801.8315
792.5641,814.3223,807.0696,787.326
784.90845,814.3223,801.02563,776.04395
791.3553,820.7692,806.26373,784.5055
783.2967,819.15753,805.8608,784.5055
772.4176,812.71063,797.3993,765.9707
774.43225,811.50183,797.3993,769.59705
774.83514,811.9048,807.0696,768.7912
774.83514,813.1135,811.0989,763.1502
775.2381,811.0989,809.0842,762.3443
774.43225,807.8755,806.6667,763.1502
779.67035,804.2491,804.2491,764.35895
783.2967,807.8755,800.6227,769.59705
784.10254,812.3077,799.81683,770.80585
786.9231,809.89014,802.6374,776.04395
792.5641,809.4872,800.6227,792.96704
793.7729,809.89014,798.20514,796.5934
796.5934,808.68134,801.02563,793.7729
799.41394,809.89014,806.6667,796.1905
802.6374,809.0842,802.6374,794.57874
795.78754,811.50183,808.68134,795.38464
793.36993,811.0989,801.02563,790.14655
790.14655,810.696,798.60803,789.7436
796.1905,810.293,799.41394,787.326
805.4579,810.293,796.5934,784.90845
802.23444,810.696,798.20514,778.46155
796.5934,811.0989,796.5934,771.2088
789.7436,811.9048,797.8022,778.46155
780.4762,812.3077,797.8022,777.6557
777.6557,810.696,799.011,773.6264
772.01465,808.2784,800.6227,775.2381
767.1795,806.26373,796.99634,770.80585
762.3443,807.47253,799.81683,761.9414
768.7912,800.6227,801.8315,757.50916
774.83514,801.4286,802.6374,755.89746
780.4762,805.8608,804.65204,760.7326
783.69965,805.8608,803.8461,760.7326
763.1502,807.0696,802.23444,760.7326
784.90845,806.6667,802.6374,762.74725
786.52014,803.8461,803.0403,761.53845
784.5055,803.0403,803.0403,772.01465
780.87915,808.2784,806.26373,791.3553
780.4762,805.8608,807.0696,786.1172
779.2674,806.26373,807.0696,784.5055
779.2674,810.696,805.05493,788.93774
775.2381,805.05493,801.02563,786.9231
797.3993,806.26373,806.26373,792.5641
784.5055,801.02563,800.6227,774.83514
783.2967,801.02563,801.4286,789.34064
780.4762,805.05493,797.8022,773.6264
794.9817,810.696,800.2198,774.83514
790.54944,805.4579,796.5934,768.3883
783.69965,807.0696,798.20514,785.31134
791.75824,809.4872,801.8315,784.5055
791.75824,810.293,803.0403,775.2381
784.10254,811.0989,799.81683,774.83514
779.67035,808.68134,800.2198,766.77655
784.90845,813.1135,805.4579,773.6264
778.46155,812.71063,805.4579,783.69965
780.4762,808.68134,804.65204,780.07324
786.1172,808.2784,801.8315,776.8498
779.2674,806.6667,805.05493,775.2381
782.49084,805.4579,808.68134,776.8498
781.28204,806.6667,807.47253,778.0586
782.0879,809.89014,808.68134,784.90845
787.72894,810.293,810.293,785.31134
794.9817,810.293,806.6667,793.7729
789.34064,807.47253,806.6667,780.87915
792.5641,812.3077,802.23444,801.8315
788.5348,806.26373,798.60803,795.78754
799.41394,811.50183,802.23444,798.60803
808.2784,818.7546,804.65204,802.23444
802.23444,815.12823,804.2491,798.60803
803.44324,815.5311,797.8022,800.2198
791.3553,816.7399,802.6374,783.2967
795.38464,813.1135,797.8022,781.28204
789.34064,813.1135,805.05493,795.78754
805.4579,816.337,793.7729,799.81683
787.326,809.89014,804.2491,786.1172
787.326,814.3223,800.6227,786.9231
777.25275,807.47253,795.78754,782.49084
780.07324,804.2491,796.5934,783.2967
789.34064,808.2784,798.60803,787.326
789.7436,805.8608,797.8022,786.1172
789.34064,804.2491,797.3993,791.3553
791.3553,805.4579,804.2491,787.326
790.9524,805.8608,801.02563,784.90845
792.5641,810.293,791.75824,780.07324
789.34064,806.26373,794.17584,778.46155
784.5055,801.02563,799.011,781.685
792.1612,806.6667,801.4286,789.34064
792.5641,811.0989,801.02563,792.5641
788.1319,807.47253,800.6227,791.75824
788.93774,808.2784,799.011,793.36993
790.14655,808.2784,799.81683,790.9524
786.1172,802.6374,799.011,782.0879
790.9524,804.65204,799.41394,784.5055
793.7729,809.89014,799.41394,789.34064
788.1319,806.6667,796.5934,793.7729
791.3553,806.6667,800.6227,803.0403
796.5934,806.6667,800.6227,800.6227
795.38464,803.8461,798.60803,789.34064
790.54944,806.26373,803.0403,783.2967
786.52014,807.8755,801.4286,783.2967
781.685,804.2491,801.8315,778.86444
784.90845,803.8461,805.8608,770
786.9231,801.02563,801.4286,776.4469
784.5055,799.41394,800.6227,784.10254
785.7143,802.23444,799.011,789.7436
788.1319,811.0989,799.011,786.9231
788.93774,809.4872,799.41394,785.7143
786.9231,801.4286,801.4286,782.0879
792.96704,801.8315,803.0403,786.1172
788.93774,804.2491,803.0403,772.01465
792.96704,804.65204,799.81683,789.34064
788.1319,802.23444,798.20514,781.685
790.14655,797.8022,799.81683,780.4762
792.96704,803.44324,803.44324,791.75824
795.78754,811.50183,813.5165,795.78754
794.9817,810.293,815.9341,795.38464
793.7729,811.0989,811.50183,798.20514
796.5934,815.9341,812.71063,796.99634
793.7729,814.3223,805.8608,794.57874
787.72894,808.2784,799.011,792.1612
789.7436,809.0842,802.23444,788.1319
788.5348,812.3077,804.65204,787.72894
787.326,811.9048,802.6374,786.52014
790.9524,808.68134,801.4286,789.7436
780.87915,803.0403,799.81683,791.75824
769.59705,801.4286,795.78754,775.64105
776.4469,807.8755,802.23444,763.95605
783.2967,808.2784,805.4579,769.59705
782.0879,805.8608,800.6227,772.01465
780.4762,807.8755,802.6374,771.6117
778.0586,810.293,803.44324,775.2381
776.8498,807.8755,802.23444,770.40295
779.67035,804.2491,806.26373,764.7619
781.28204,805.8608,807.0696,770.80585
786.9231,807.8755,811.9048,781.28204
790.14655,809.89014,812.3077,777.6557
790.14655,813.5165,805.05493,774.0293
789.34064,811.0989,802.6374,773.22345
780.4762,803.44324,794.17584,766.77655
786.52014,807.47253,794.9817,782.8938
793.7729,807.8755,803.8461,792.5641
788.93774,810.293,803.0403,784.5055
783.2967,809.0842,801.02563,778.86444
784.5055,805.05493,804.2491,779.2674
792.1612,807.8755,806.6667,786.1172
794.57874,807.0696,806.6667,790.14655
796.5934,805.4579,805.05493,790.54944
790.9524,802.23444,802.23444,786.52014
781.28204,805.8608,803.0403,783.69965
780.07324,805.05493,802.23444,781.685
781.685,805.05493,798.60803,784.5055
778.86444,809.89014,800.2198,799.81683
774.0293,804.65204,799.011,793.36993
776.04395,802.23444,794.9817,780.4762
773.6264,797.3993,797.3993,778.46155
782.49084,798.20514,802.23444,780.07324
791.75824,805.8608,801.4286,793.36993
794.57874,807.0696,799.81683,802.6374
802.6374,805.8608,801.02563,793.7729
806.6667,805.05493,805.8608,798.20514
804.65204,804.2491,808.2784,792.5641
799.41394,801.4286,802.6374,799.011
801.02563,803.8461,802.6374,786.52014
801.02563,801.02563,800.6227,801.4286
795.38464,799.81683,799.011,793.36993
794.57874,797.8022,798.60803,791.3553
796.99634,803.8461,803.44324,787.72894
790.9524,798.60803,799.81683,794.57874
786.1172,794.57874,798.60803,792.96704
785.7143,799.011,809.89014,784.10254
784.90845,800.6227,809.4872,790.9524
789.34064,801.8315,805.05493,799.011
789.7436,805.05493,805.8608,795.38464
794.17584,804.65204,800.2198,798.20514
789.7436,801.02563,801.02563,796.5934
786.9231,801.8315,803.8461,802.23444
796.1905,805.8608,801.4286,800.6227
800.2198,808.2784,800.2198,794.9817
804.2491,805.05493,793.7729,798.60803
805.8608,802.23444,792.96704,791.75824
806.6667,800.6227,796.99634,792.96704
806.26373,799.41394,791.3553,796.1905
803.44324,801.02563,790.9524,789.34064
811.0989,803.44324,797.3993,784.90845
820.3663,803.0403,800.6227,789.34064
822.381,803.8461,796.99634,797.8022
823.1868,810.293,798.60803,802.23444
821.978,811.9048,807.0696,801.02563
815.9341,803.44324,804.65204,806.26373
809.4872,799.81683,804.2491,800.2198
811.9048,807.0696,812.3077,796.99634
812.71063,811.0989,812.3077,803.44324
802.6374,809.0842,807.47253,800.2198
794.17584,807.47253,809.89014,797.8022
788.93774,805.05493,811.9048,794.17584
784.10254,803.0403,805.8608,799.011
781.685,804.65204,805.8608,798.60803
783.69965,809.0842,811.9048,799.41394
784.10254,809.89014,809.89014,798.60803
782.49084,809.4872,807.8755,783.69965
780.07324,806.6667,807.47253,780.07324
782.8938,805.8608,808.68134,792.1612
781.685,808.2784,810.696,788.1319
776.8498,809.89014,810.293,770.80585
782.0879,811.0989,807.8755,771.2088
786.9231,813.5165,805.4579,779.2674
788.93774,814.3223,805.05493,782.49084
792.96704,811.9048,804.65204,784.5055
796.99634,808.68134,800.6227,779.2674
800.2198,809.0842,802.6374,775.64105
800.6227,810.293,808.68134,779.67035
803.8461,809.89014,807.47253,786.52014
800.6227,804.2491,803.0403,783.69965
789.7436,807.8755,801.8315,781.28204
794.9817,811.9048,803.44324,784.10254
797.8022,810.696,804.2491,783.2967
792.5641,811.0989,805.8608,789.34064
784.90845,808.2784,804.2491,788.93774
769.19415,802.6374,804.65204,768.3883
772.8205,805.05493,803.8461,771.2088
770.80585,804.65204,802.6374,782.49084
762.74725,803.44324,803.8461,774.43225
756.30035,803.0403,800.6227,774.0293
763.5531,805.8608,801.02563,787.72894
766.3736,803.0403,804.65204,787.72894
761.13556,798.60803,803.8461,785.31134
757.9121,800.6227,800.6227,786.9231
762.74725,803.0403,794.57874,786.9231
770,807.0696,797.3993,789.7436
768.7912,808.2784,797.8022,776.04395
773.22345,810.293,795.78754,771.2088
781.685,813.91943,798.60803,792.1612
788.1319,812.3077,798.20514,793.7729
788.93774,809.0842,790.9524,782.8938
786.9231,807.8755,789.34064,776.4469
789.34064,805.8608,796.1905,773.22345
794.57874,805.4579,799.81683,783.2967
799.41394,808.68134,801.02563,788.93774
802.6374,809.89014,802.6374,781.685
807.8755,811.9048,801.02563,787.72894
803.44324,811.9048,800.6227,791.3553
799.011,813.91943,802.6374,783.2967
804.65204,818.7546,802.6374,786.9231
801.02563,816.7399,800.2198,783.2967
792.5641,814.3223,796.5934,783.2967
790.14655,811.0989,796.1905,786.9231
787.72894,806.26373,796.99634,789.7436
785.7143,811.50183,799.011,787.326
780.87915,810.696,799.011,776.8498
774.0293,803.8461,792.96704,773.6264
769.19415,802.6374,796.99634,777.25275
770.80585,803.8461,803.0403,784.90845
779.67035,810.696,801.8315,797.3993
782.8938,812.3077,799.81683,794.57874
784.5055,807.8755,799.011,788.5348
794.9817,809.4872,801.02563,803.8461
806.6667,811.50183,805.4579,804.2491
812.71063,810.696,807.0696,801.02563
817.9487,809.4872,807.47253,804.65204
814.3223,807.0696,806.26373,806.6667
819.15753,811.0989,808.2784,803.8461
815.12823,813.1135,807.0696,793.7729
812.71063,813.91943,809.0842,791.3553
813.5165,811.0989,804.65204,799.81683
811.0989,814.3223,795.78754,797.8022
810.696,811.0989,795.38464,788.1319
805.8608,808.68134,796.5934,781.685
808.2784,810.696,798.20514,788.1319
808.2784,810.696,797.3993,793.36993
803.44324,808.68134,794.17584,788.1319
799.41394,812.71063,803.8461,778.46155
794.57874,809.4872,803.44324,777.6557
797.8022,804.65204,795.78754,786.52014
792.5641,804.65204,795.38464,782.8938
788.93774,806.6667,797.3993,776.4469
778.0586,807.47253,794.9817,786.1172
808.68134,810.293,798.60803,784.5055
779.2674,809.4872,794.9817,801.8315
791.3553,811.50183,805.4579,802.6374
788.5348,810.293,800.2198,805.05493
800.2198,811.0989,804.2491,810.293
805.8608,808.68134,802.6374,815.12823
810.293,811.9048,806.26373,815.9341
808.68134,809.0842,807.0696,809.89014
809.89014,808.68134,803.44324,806.26373
814.7253,812.3077,801.02563,803.44324
814.3223,812.3077,801.4286,802.6374
815.5311,815.5311,799.41394,799.011
820.7692,813.91943,799.011,789.7436
822.7839,809.89014,800.6227,802.6374
823.9927,809.0842,801.02563,804.65204
819.15753,809.89014,802.23444,786.9231
813.5165,812.3077,801.4286,786.1172
812.71063,811.9048,800.2198,793.36993
808.2784,811.0989,799.41394,794.9817
805.4579,808.2784,801.8315,792.96704
800.2198,808.2784,801.8315,786.9231
792.5641,811.50183,800.6227,781.28204
790.9524,809.89014,805.05493,787.326
791.75824,806.6667,808.2784,790.14655
786.52014,803.8461,807.8755,786.1172
782.49084,804.65204,810.293,788.5348
776.4469,808.2784,809.4872,788.5348
774.0293,807.0696,806.6667,792.96704
777.25275,805.05493,809.4872,809.0842
785.7143,807.0696,811.0989,817.1429
796.99634,809.4872,811.50183,814.3223
794.57874,814.3223,811.9048,813.5165
800.6227,809.0842,811.0989,811.0989
797.8022,810.696,808.2784,813.91943
788.5348,813.91943,811.50183,809.0842
789.7436,808.2784,801.4286,798.60803
796.1905,807.47253,799.41394,794.17584
797.8022,810.293,807.0696,795.78754
804.65204,805.8608,809.89014,793.7729
808.2784,807.8755,805.8608,803.44324
806.6667,810.293,799.81683,803.44324
805.8608,810.696,800.2198,788.93774
805.4579,807.0696,801.02563,780.07324
802.23444,804.2491,799.011,784.90845
798.60803,804.2491,801.02563,772.8205
794.9817,805.4579,805.05493,775.64105
782.49084,803.8461,803.8461,781.28204
770.40295,796.1905,798.60803,774.43225
772.01465,796.5934,800.6227,776.8498
763.1502,801.02563,807.0696,766.77655
751.8681,799.011,807.0696,763.5531
758.315,796.5934,806.6667,770
757.50916,798.60803,810.293,776.4469
749.0476,798.60803,807.0696,775.2381
755.09155,799.81683,804.65204,770
762.3443,802.23444,803.0403,775.64105
762.74725,802.6374,800.6227,773.22345
767.5824,805.8608,801.8315,769.19415
778.86444,808.68134,798.20514,782.0879
794.17584,809.0842,799.41394,796.99634
796.99634,808.68134,800.2198,789.34064
792.5641,806.6667,802.6374,779.67035
794.9817,810.696,801.4286,782.49084
791.3553,813.1135,797.3993,780.4762
781.685,808.68134,803.44324,776.04395
787.326,809.0842,801.8315,775.64105
800.2198,812.71063,799.81683,777.25275
796.99634,812.3077,800.2198,783.2967
792.96704,811.9048,798.60803,784.90845
788.1319,810.293,799.41394,775.2381
777.6557,801.8315,797.3993,768.7912
778.0586,797.8022,794.57874,768.7912
785.31134,801.02563,794.9817,770.80585
781.685,806.26373,796.5934,771.2088
771.6117,805.05493,792.5641,770
766.3736,796.99634,789.34064,770.80585
767.1795,796.99634,792.96704,767.1795
765.16486,805.05493,799.011,770.80585
769.19415,803.0403,800.2198,777.6557
771.2088,803.8461,803.44324,776.8498
764.35895,805.4579,800.2198,773.6264
770.80585,801.8315,799.81683,771.6117
774.43225,800.6227,794.9817,779.67035
777.6557,801.4286,799.41394,783.2967
786.52014,803.0403,805.8608,780.4762
793.7729,801.4286,805.05493,786.9231
792.5641,803.44324,799.81683,796.99634
795.78754,807.0696,794.9817,799.81683
802.6374,806.26373,795.78754,795.78754
806.26373,805.4579,802.6374,793.7729
804.2491,806.26373,803.8461,794.57874
804.65204,809.0842,802.23444,794.57874
811.9048,809.4872,804.65204,788.5348
811.50183,809.4872,804.2491,784.5055
807.47253,813.5165,803.8461,786.1172
809.89014,815.5311,807.0696,792.1612
802.6374,808.68134,799.81683,778.86444
788.5348,802.23444,794.57874,784.5055
795.38464,804.2491,794.9817,766.77655
783.69965,801.02563,797.8022,787.326
782.8938,801.02563,801.8315,785.7143
778.46155,801.4286,802.6374,784.5055
782.0879,804.2491,806.26373,785.31134
786.9231,809.4872,806.6667,789.34064
776.4469,809.4872,805.05493,788.93774
774.0293,811.9048,802.23444,784.10254
782.49084,813.1135,799.011,789.34064
786.52014,810.696,801.02563,803.8461
782.8938,807.8755,803.8461,799.41394
784.90845,808.68134,804.65204,802.6374
792.1612,811.9048,803.8461,805.05493
790.9524,807.47253,800.6227,795.78754
793.36993,806.26373,806.26373,799.41394
800.2198,811.0989,807.47253,801.02563
794.17584,807.0696,805.4579,798.60803
796.1905,808.2784,805.8608,800.6227
800.6227,811.50183,804.2491,785.31134
799.81683,809.0842,806.26373,780.87915
803.0403,805.4579,809.0842,788.5348
798.20514,803.44324,809.0842,773.6264
792.96704,805.4579,807.0696,774.83514
795.38464,808.68134,801.8315,782.0879
802.6374,813.5165,795.38464,774.43225
807.47253,815.5311,795.38464,778.46155
810.696,818.3516,801.4286,786.9231
803.44324,812.3077,805.8608,782.8938
799.81683,810.293,804.2491,780.87915
810.696,819.9634,806.26373,790.14655
795.78754,809.89014,799.81683,778.46155
789.34064,807.0696,795.78754,769.59705
787.326,805.8608,795.78754,778.0586
787.72894,805.8608,796.1905,770
788.1319,809.89014,797.8022,774.43225
785.7143,808.2784,796.5934,788.93774
793.7729,805.4579,795.38464,783.2967
796.5934,801.8315,795.78754,794.9817
793.36993,801.4286,796.99634,797.8022
803.44324,804.65204,796.5934,792.1612
809.0842,805.4579,793.7729,794.57874
805.8608,806.6667,801.8315,792.96704
806.6667,805.4579,792.5641,799.81683
806.26373,806.26373,808.68134,790.14655
808.68134,805.05493,801.02563,792.5641
808.68134,803.44324,796.99634,791.75824
805.8608,802.6374,794.57874,795.78754
800.6227,805.05493,795.38464,793.7729
801.4286,805.8608,796.5934,778.46155
807.47253,802.6374,795.78754,776.4469
801.4286,805.8608,797.8022,782.49084
798.20514,805.05493,799.011,774.0293
799.81683,803.44324,798.20514,770.80585
792.96704,807.0696,801.02563,767.5824
787.326,805.05493,801.8315,765.9707
779.2674,805.05493,801.02563,766.3736
768.3883,803.8461,799.011,763.1502
765.9707,804.65204,797.8022,761.53845
772.4176,805.05493,805.05493,770
772.01465,803.8461,809.89014,772.01465
768.7912,804.65204,807.47253,766.3736
770.80585,805.8608,807.47253,773.22345
775.2381,806.26373,805.8608,775.64105
779.2674,803.0403,799.81683,779.2674
781.28204,807.0696,804.2491,773.22345
778.46155,804.2491,803.8461,774.83514
781.28204,803.8461,800.2198,774.83514
776.8498,799.81683,795.78754,766.77655
778.46155,793.7729,790.9524,766.77655
784.10254,794.9817,795.38464,772.4176
787.326,799.011,798.20514,773.6264
782.8938,799.011,799.011,766.77655
774.0293,802.6374,801.8315,762.3443
772.8205,805.4579,802.6374,768.3883
779.67035,805.4579,804.65204,763.95605
777.6557,805.05493,799.81683,759.92676
772.01465,802.6374,794.57874,764.35895
768.7912,803.44324,789.7436,761.9414
771.6117,804.65204,788.5348,761.9414
761.13556,796.99634,790.54944,747.03296
764.35895,801.4286,791.75824,751.4652
759.5238,798.20514,795.78754,740.989
741.39197,795.38464,796.1905,730.5128
738.5714,795.38464,792.1612,738.97437
750.2564,801.4286,794.17584,739.3773
743.4066,805.8608,797.3993,736.9597
738.97437,803.8461,796.5934,751.06226
747.4359,803.8461,800.2198,755.4945
758.315,805.05493,804.65204,762.3443
764.35895,803.8461,798.60803,767.1795
769.19415,805.4579,793.7729,767.98535
773.6264,805.05493,802.6374,770.40295
772.8205,802.23444,806.6667,775.64105
779.2674,805.4579,805.4579,771.2088
782.8938,807.0696,805.05493,765.16486
781.28204,799.41394,801.02563,770.40295
783.69965,800.6227,802.6374,763.5531
786.9231,803.44324,806.26373,771.2088
790.14655,803.44324,807.47253,784.10254
785.7143,801.4286,802.23444,783.2967
785.7143,805.8608,800.6227,783.2967
796.5934,810.696,801.8315,785.7143
787.326,803.0403,800.2198,779.67035
776.04395,803.8461,799.41394,774.83514
777.6557,809.89014,798.60803,782.8938
774.83514,802.23444,800.2198,771.6117
771.6117,800.6227,801.4286,764.7619
772.8205,805.05493,805.05493,767.98535
772.8205,805.05493,810.696,767.98535
773.6264,808.68134,811.0989,777.25275
765.9707,805.8608,807.8755,779.67035
760.7326,803.0403,808.68134,781.685
763.1502,803.44324,811.9048,779.2674
759.5238,801.4286,810.293,767.1795
757.50916,803.44324,809.4872,767.98535
767.98535,807.47253,807.8755,773.6264
775.2381,810.696,805.8608,773.6264
775.2381,806.6667,805.8608,778.86444
776.4469,800.2198,802.23444,783.69965
784.5055,804.65204,802.23444,784.10254
790.54944,805.4579,805.05493,775.64105
793.36993,806.26373,802.6374,777.6557
799.011,811.0989,795.38464,783.2967
798.60803,809.0842,792.1612,785.7143
781.685,806.6667,793.7729,780.4762
777.6557,809.4872,794.9817,767.98535
792.1612,811.9048,794.57874,775.2381
796.5934,811.50183,799.81683,784.90845
792.96704,812.3077,804.2491,791.75824
792.96704,809.4872,803.44324,783.69965
792.1612,803.44324,803.0403,778.46155
786.9231,805.05493,798.60803,783.69965
786.1172,805.4579,795.38464,772.8205
784.10254,803.44324,792.96704,768.7912
780.87915,803.8461,791.3553,770.40295
772.4176,796.5934,805.8608,775.2381
765.56775,794.9817,801.4286,765.9707
759.92676,799.41394,801.4286,763.5531
764.35895,795.78754,805.4579,766.77655
767.1795,794.57874,802.6374,765.56775
768.7912,800.6227,799.011,778.86444
769.19415,798.60803,802.6374,787.72894
773.6264,797.8022,807.47253,798.20514
777.6557,803.44324,801.02563,772.01465
771.2088,796.5934,805.4579,791.75824
771.6117,797.3993,805.8608,790.9524
777.6557,795.38464,806.26373,789.7436
779.67035,794.17584,805.4579,805.8608
779.67035,797.8022,803.8461,800.2198
791.3553,800.2198,808.2784,797.8022
794.9817,800.2198,806.26373,809.0842
792.96704,800.6227,805.05493,796.1905
799.011,799.011,803.44324,794.9817
798.60803,798.60803,799.011,801.4286
799.81683,803.0403,804.2491,799.011
796.99634,804.65204,802.6374,803.0403
792.96704,801.02563,796.5934,791.3553
802.6374,803.44324,806.26373,786.52014
798.20514,803.0403,811.9048,792.1612
793.7729,800.6227,807.47253,788.5348
790.14655,804.2491,804.2491,782.0879
784.10254,803.44324,801.4286,770.80585
774.83514,796.99634,799.41394,763.1502
770.40295,795.78754,794.9817,766.77655
770.40295,794.17584,791.3553,761.9414
762.74725,799.41394,795.38464,755.4945
756.7033,802.23444,799.81683,764.35895
747.03296,791.75824,796.99634,762.74725
746.2271,789.34064,792.96704,753.0769
752.674,792.1612,791.75824,757.1062
759.92676,792.1612,791.3553,755.09155
764.7619,794.9817,792.5641,757.1062
774.0293,798.20514,797.3993,766.77655
784.90845,796.99634,798.60803,772.8205
789.7436,796.5934,799.41394,785.7143
791.75824,800.2198,803.44324,791.75824
795.38464,803.0403,804.2491,794.17584
794.9817,802.23444,803.44324,794.9817
786.1172,799.011,800.6227,784.10254
792.1612,801.02563,802.6374,780.87915
798.60803,800.2198,800.2198,792.5641
796.5934,796.99634,797.3993,789.7436
798.20514,802.6374,799.41394,779.67035
794.57874,801.4286,794.9817,773.22345
795.38464,797.3993,799.41394,784.10254
796.1905,796.5934,794.17584,775.64105
791.3553,800.2198,802.23444,790.54944
793.36993,801.4286,800.2198,789.7436
789.34064,797.3993,797.3993,774.43225
777.25275,794.17584,791.75824,762.74725
774.43225,794.9817,792.1612,765.9707
772.4176,794.57874,794.9817,772.01465
761.13556,792.96704,795.38464,765.9707
760.7326,792.5641,799.41394,766.77655
763.5531,794.57874,797.8022,764.7619
762.74725,794.57874,796.1905,756.30035
778.86444,799.41394,799.41394,785.31134
785.31134,796.1905,798.60803,782.0879
785.7143,795.78754,799.41394,785.7143
768.7912,796.1905,798.20514,773.22345
799.81683,798.20514,806.6667,804.65204
792.96704,796.99634,806.26373,800.6227
805.4579,804.65204,800.2198,799.81683
793.7729,798.20514,796.5934,788.1319
805.05493,809.0842,801.02563,799.41394
799.81683,799.41394,794.57874,788.5348
807.0696,809.0842,806.26373,796.5934
806.26373,806.6667,809.89014,801.02563
804.65204,806.6667,807.47253,802.23444
798.60803,804.2491,804.2491,794.17584
800.2198,799.41394,797.8022,786.1172
800.6227,800.6227,795.78754,786.52014
797.8022,805.4579,798.20514,801.8315
796.1905,808.68134,799.41394,794.17584
797.3993,804.65204,796.1905,797.8022
792.1612,807.0696,796.5934,784.90845
783.2967,805.4579,795.78754,780.4762
774.43225,802.23444,802.23444,785.31134
772.8205,798.20514,808.68134,778.0586
766.3736,799.81683,805.4579,770.80585
764.7619,796.99634,806.26373,772.8205
770.40295,796.1905,801.02563,773.22345
777.6557,794.9817,792.96704,770
784.90845,793.36993,797.8022,777.25275
790.9524,796.99634,802.6374,784.10254
796.1905,797.8022,800.2198,786.1172
798.60803,799.41394,800.6227,794.9817
805.8608,804.2491,799.81683,797.3993
803.8461,802.23444,801.4286,803.0403
806.26373,801.02563,795.78754,800.6227
809.89014,802.6374,794.57874,801.4286
811.9048,806.6667,795.78754,793.7729
811.50183,802.6374,788.93774,793.7729
809.0842,801.02563,786.9231,790.14655
806.6667,800.2198,788.93774,785.31134
805.4579,799.41394,791.75824,781.28204
795.78754,792.96704,794.57874,778.86444
789.7436,794.9817,801.4286,779.67035
792.5641,799.011,808.2784,780.07324
793.36993,793.36993,805.4579,796.5934
788.93774,790.9524,797.3993,779.67035
785.31134,795.78754,798.60803,760.32965
776.8498,794.9817,801.02563,765.9707
773.22345,794.9817,801.8315,777.25275
770.80585,796.5934,801.4286,776.04395
766.3736,799.81683,802.23444,771.6117
772.4176,797.8022,805.05493,782.49084
771.2088,799.81683,802.6374,778.86444
762.3443,797.3993,798.20514,767.5824
764.35895,799.011,799.011,770.80585
768.7912,796.99634,801.8315,774.83514
775.2381,797.8022,803.44324,786.1172
782.0879,799.41394,802.6374,790.54944
788.5348,800.2198,799.41394,787.72894
792.1612,805.8608,798.20514,784.5055
793.7729,802.23444,798.60803,784.10254
792.96704,800.6227,795.38464,782.8938
786.1172,802.6374,797.3993,781.28204
788.1319,805.4579,803.0403,786.9231
788.5348,808.2784,804.65204,787.72894
788.5348,806.26373,803.44324,778.86444
792.96704,799.41394,804.2491,782.49084
792.5641,801.4286,804.2491,778.0586
786.1172,801.8315,800.2198,776.04395
792.96704,807.8755,803.44324,774.43225
792.96704,803.8461,805.05493,780.87915
787.72894,803.44324,798.60803,780.87915
789.34064,804.2491,796.99634,774.43225
788.93774,803.8461,795.78754,771.2088
787.72894,800.2198,797.8022,781.685
782.49084,800.6227,798.20514,781.28204
775.64105,801.8315,798.20514,778.0586
772.01465,795.38464,803.0403,771.6117
772.8205,796.99634,807.0696,775.64105
770,805.4579,804.2491,780.87915
768.3883,799.81683,799.011,772.4176
771.6117,792.96704,799.011,772.4176
777.25275,796.99634,802.23444,778.46155
782.8938,794.9817,798.20514,781.28204
792.5641,799.011,799.41394,784.10254
797.8022,801.4286,797.8022,788.1319
803.0403,799.81683,796.99634,790.14655
807.8755,801.4286,802.6374,790.14655
807.0696,800.2198,802.6374,789.34064
810.293,805.8608,797.8022,793.36993
812.71063,803.0403,799.41394,779.67035
814.3223,807.0696,794.17584,790.9524
802.6374,804.65204,800.2198,778.86444
800.6227,800.2198,796.99634,780.4762
809.4872,799.81683,797.3993,779.2674
809.0842,803.0403,800.6227,787.72894
807.47253,802.23444,801.02563,784.90845
803.0403,803.0403,802.23444,788.5348
800.2198,799.81683,799.81683,786.1172
798.20514,801.8315,797.3993,783.2967
792.5641,803.0403,801.4286,786.1172
789.7436,799.81683,802.23444,778.0586
781.685,801.02563,800.6227,774.43225
777.25275,803.44324,803.44324,787.326
775.64105,804.65204,802.6374,790.9524
770.40295,803.8461,799.011,783.69965
770.80585,802.6374,801.4286,780.87915
774.43225,799.41394,801.4286,776.04395
778.46155,798.60803,803.8461,779.2674
774.43225,799.41394,804.2491,788.5348
776.8498,798.60803,803.8461,791.75824
784.90845,797.8022,804.2491,791.75824
783.2967,799.81683,803.44324,794.9817
788.5348,809.0842,809.4872,794.9817
794.17584,807.8755,808.68134,787.72894
794.9817,806.26373,803.44324,792.5641
797.3993,808.2784,802.23444,788.5348
798.20514,808.2784,798.60803,784.5055
796.99634,809.4872,797.8022,789.7436
792.96704,803.8461,796.5934,788.93774
794.57874,803.0403,794.9817,788.5348
802.23444,805.4579,796.1905,789.7436
801.8315,802.6374,795.78754,782.8938
798.20514,799.81683,792.1612,776.4469
800.2198,803.8461,790.54944,784.90845
799.41394,810.293,790.54944,789.34064
803.0403,810.696,786.52014,785.31134
798.60803,806.6667,787.326,780.87915
792.5641,803.8461,793.7729,784.90845
794.9817,805.8608,794.9817,793.36993
784.10254,806.26373,795.38464,797.3993
781.685,807.0696,794.9817,791.75824
790.54944,805.4579,796.1905,784.5055
792.1612,808.2784,799.81683,788.5348
794.9817,811.9048,800.6227,790.9524
794.17584,811.9048,797.8022,787.72894
790.54944,810.293,792.5641,793.36993
796.1905,810.293,802.23444,788.1319
794.17584,808.2784,797.8022,800.2198
803.44324,811.9048,805.05493,796.1905
804.2491,815.5311,805.05493,795.78754
808.2784,809.89014,799.41394,804.65204
810.696,809.0842,798.20514,806.26373
809.0842,811.9048,805.4579,796.99634
802.6374,809.4872,800.6227,797.8022
806.6667,803.8461,796.1905,799.011
813.1135,805.05493,796.99634,795.38464
807.47253,805.8608,797.8022,791.75824
805.4579,808.68134,802.23444,800.2198
809.4872,806.26373,793.7729,787.72894
807.8755,800.2198,792.1612,786.9231
806.26373,801.8315,796.99634,790.9524
811.0989,809.89014,801.02563,788.5348
807.0696,808.2784,797.8022,785.31134
793.36993,805.05493,796.5934,790.9524
792.5641,805.4579,796.99634,793.7729
797.8022,805.8608,797.3993,803.8461
793.7729,801.4286,796.1905,796.99634
788.5348,799.011,793.7729,784.90845
789.34064,805.4579,796.1905,790.54944
792.1612,808.68134,796.1905,791.3553
792.1612,804.65204,796.99634,794.57874
789.7436,801.4286,794.9817,790.54944
788.5348,800.2198,795.38464,788.5348
798.20514,798.20514,798.20514,794.17584
806.26373,802.23444,794.57874,796.99634
804.2491,805.4579,793.7729,796.99634
802.6374,802.23444,796.1905,791.3553
808.68134,801.8315,798.20514,785.7143
815.9341,804.2491,800.6227,792.5641
813.1135,805.05493,801.02563,787.326
808.2784,806.6667,801.02563,788.5348
812.3077,810.696,799.81683,798.60803
809.0842,808.2784,795.38464,793.7729
803.44324,805.4579,795.38464,795.38464
805.05493,812.3077,799.81683,798.20514
804.65204,810.293,799.011,796.1905
799.41394,805.4579,797.3993,785.31134
793.7729,805.8608,799.81683,784.10254
792.5641,807.0696,803.44324,792.96704
791.3553,807.47253,801.4286,788.93774
788.5348,803.0403,797.8022,783.2967
786.52014,803.8461,798.20514,785.31134
789.7436,807.47253,804.65204,785.7143
789.7436,804.65204,801.02563,784.10254
788.5348,803.0403,796.99634,790.54944
791.3553,805.8608,803.0403,793.7729
790.14655,804.2491,802.23444,793.7729
790.14655,801.8315,797.8022,788.93774
791.3553,802.6374,802.23444,790.9524
794.57874,804.65204,804.2491,793.36993
795.38464,805.8608,796.5934,796.1905
789.7436,803.0403,801.4286,792.96704
791.75824,803.8461,803.0403,789.34064
795.78754,805.05493,796.1905,791.75824
797.8022,807.8755,796.99634,784.90845
798.60803,811.50183,797.3993,790.54944
805.4579,805.4579,800.2198,785.31134
805.4579,805.4579,795.38464,786.9231
802.23444,805.8608,797.8022,791.3553
792.96704,807.0696,797.3993,781.685
796.99634,808.68134,801.02563,790.54944
800.2198,807.8755,801.4286,798.60803
796.99634,810.293,799.81683,787.326
784.5055,807.0696,795.78754,770.40295
782.8938,806.26373,797.3993,776.4469
784.90845,810.293,795.38464,783.69965
784.10254,807.0696,796.5934,778.86444
781.28204,808.2784,795.78754,767.5824
784.5055,809.89014,797.8022,772.01465
788.1319,814.7253,812.71063,780.87915
792.96704,815.12823,804.2491,789.34064
790.54944,809.89014,796.5934,791.3553
792.5641,809.4872,799.81683,788.1319
786.1172,808.68134,808.68134,783.69965
794.9817,812.3077,804.2491,798.60803
793.7729,811.0989,803.0403,797.8022
792.1612,807.47253,800.6227,789.7436
785.31134,806.26373,799.41394,790.9524
789.7436,806.26373,800.2198,790.14655
797.3993,809.4872,800.2198,786.9231
781.28204,799.41394,796.99634,785.31134
782.8938,802.23444,797.3993,775.64105
782.8938,805.05493,794.9817,765.9707
784.90845,805.05493,793.36993,765.9707
788.93774,804.65204,796.99634,788.5348
787.72894,806.26373,801.4286,771.2088
785.31134,806.26373,804.65204,776.04395
780.4762,806.6667,799.41394,776.4469
782.49084,806.6667,795.38464,767.98535
788.1319,810.293,795.38464,768.7912
794.17584,814.3223,797.8022,780.87915
797.8022,817.9487,798.60803,787.72894
799.41394,817.5458,799.81683,786.52014
791.75824,811.0989,797.8022,781.28204
785.7143,803.44324,794.9817,789.34064
791.75824,802.6374,797.3993,796.5934
795.78754,801.02563,801.02563,790.14655
799.81683,802.6374,800.2198,794.9817
801.8315,808.68134,800.2198,796.5934
802.6374,809.89014,804.65204,794.9817
805.4579,812.3077,804.65204,792.5641
805.8608,812.3077,803.44324,793.7729
801.8315,814.3223,805.4579,793.7729
796.99634,813.1135,805.05493,783.69965
794.57874,803.44324,799.41394,788.93774
785.31134,804.65204,797.3993,778.46155
788.93774,808.2784,797.3993,777.6557
789.7436,805.4579,802.6374,781.28204
790.54944,801.4286,797.8022,787.72894
789.7436,807.47253,800.6227,776.8498
799.011,811.50183,805.05493,786.9231
796.5934,813.5165,805.05493,779.67035
791.75824,813.1135,802.23444,778.46155
790.9524,811.0989,799.41394,771.6117
791.75824,809.0842,803.0403,776.8498
786.52014,801.4286,798.20514,770.40295
776.8498,801.02563,799.011,780.07324
776.4469,806.6667,799.011,775.2381
779.2674,808.68134,801.8315,778.0586
780.4762,808.68134,804.65204,780.07324
781.28204,807.8755,801.4286,779.67035
788.5348,810.293,799.81683,789.7436
797.3993,811.0989,796.5934,797.8022
801.4286,809.0842,796.1905,799.011
804.65204,807.8755,798.20514,797.3993
810.696,808.68134,796.5934,802.6374
815.5311,813.1135,794.9817,804.65204
808.2784,815.5311,793.7729,798.60803
806.6667,815.12823,793.7729,795.38464
808.2784,813.5165,788.5348,788.1319
809.89014,814.3223,788.93774,786.1172
813.91943,817.1429,796.1905,786.9231
813.5165,815.12823,799.41394,786.9231
810.293,813.5165,800.2198,780.4762
804.2491,810.696,797.8022,780.07324
801.8315,806.6667,801.4286,794.17584
796.1905,808.68134,804.65204,791.75824
787.72894,810.696,800.6227,782.8938
787.72894,812.3077,797.8022,790.54944
791.3553,811.9048,798.20514,799.41394
790.14655,809.0842,804.65204,797.3993
780.87915,806.6667,803.44324,792.5641
776.8498,804.65204,799.41394,788.1319
777.25275,801.02563,796.1905,778.46155
781.28204,798.60803,793.36993,774.83514
785.7143,799.41394,794.57874,779.2674
786.1172,805.8608,795.38464,785.7143
788.5348,805.4579,789.7436,795.78754
794.17584,801.02563,789.34064,794.17584
811.0989,810.293,799.011,795.38464
803.44324,806.6667,799.81683,789.34064
810.293,808.68134,795.38464,800.2198
815.5311,802.6374,801.4286,799.41394
817.1429,793.7729,802.23444,798.60803
807.47253,792.96704,800.2198,790.54944
807.8755,793.7729,800.6227,785.7143
815.12823,792.96704,800.6227,786.52014
809.0842,791.3553,792.1612,790.54944
802.6374,791.75824,790.14655,793.7729
803.44324,785.31134,794.9817,788.93774
801.4286,782.8938,799.011,794.9817
792.5641,787.72894,801.02563,805.4579
788.5348,788.93774,798.20514,801.8315
790.14655,785.7143,800.2198,798.20514
792.96704,787.326,800.2198,797.3993
791.3553,791.75824,802.23444,795.38464
784.10254,790.14655,803.8461,790.14655
788.1319,790.9524,799.81683,792.96704
787.326,789.7436,800.2198,790.14655
785.7143,791.3553,805.4579,787.326
790.54944,792.5641,807.0696,800.2198
794.57874,792.1612,807.0696,803.0403
798.20514,796.99634,807.8755,803.0403
802.23444,800.2198,800.2198,804.2491
808.2784,799.41394,795.38464,801.02563
807.47253,799.81683,795.38464,801.8315
804.65204,803.8461,793.36993,791.3553
812.3077,805.4579,791.75824,788.5348
813.1135,805.05493,793.36993,794.9817
811.9048,805.4579,794.57874,794.9817
811.0989,803.0403,790.9524,792.1612
801.8315,802.23444,792.5641,786.1172
801.02563,807.47253,792.5641,790.9524
808.2784,805.4579,793.36993,798.60803
811.9048,803.44324,799.011,796.1905
807.0696,803.0403,796.1905,787.72894
798.20514,801.8315,788.5348,780.87915
799.81683,806.6667,787.72894,790.14655
802.23444,809.89014,790.54944,795.78754
792.5641,804.65204,789.34064,781.685
786.9231,799.81683,794.57874,782.0879
786.1172,801.02563,794.17584,775.64105
782.49084,796.5934,792.5641,777.25275
786.9231,799.81683,790.54944,778.46155
784.90845,800.2198,794.57874,786.9231
782.8938,803.44324,797.3993,786.1172
787.326,797.8022,797.8022,782.0879
802.23444,801.8315,796.5934,791.3553
805.4579,805.05493,795.78754,798.60803
805.8608,809.0842,794.57874,798.60803
809.4872,807.47253,793.7729,807.47253
807.47253,802.23444,793.36993,803.8461
805.05493,802.6374,795.38464,796.5934
811.0989,806.26373,798.60803,804.65204
816.337,809.0842,802.6374,807.8755
812.71063,813.91943,802.23444,793.7729
809.89014,814.7253,798.20514,790.9524
809.4872,808.2784,799.41394,795.78754
801.8315,806.6667,794.9817,788.93774
800.6227,808.68134,798.20514,778.0586
801.8315,805.8608,801.02563,783.69965
796.99634,806.6667,799.41394,796.1905
793.36993,809.89014,800.6227,794.57874
792.1612,809.4872,799.41394,792.5641
786.52014,806.6667,794.57874,790.9524
778.86444,805.8608,794.9817,789.7436
774.83514,810.696,803.44324,785.7143
768.3883,810.696,804.2491,784.10254
766.3736,809.4872,800.6227,784.10254
764.35895,803.44324,801.02563,773.22345
768.7912,800.2198,798.20514,766.77655
786.1172,795.78754,794.9817,777.6557
775.2381,799.81683,797.8022,771.2088
796.1905,796.99634,796.99634,784.5055
806.26373,801.4286,790.54944,786.52014
803.44324,803.8461,801.4286,786.9231
804.65204,794.17584,788.93774,792.1612
807.0696,796.5934,799.011,792.96704
804.2491,797.8022,800.2198,792.5641
763.1502,796.1905,801.4286,768.7912
798.20514,797.3993,796.1905,789.7436
801.02563,801.8315,796.99634,784.10254
804.65204,799.81683,803.44324,779.67035
799.81683,801.8315,803.8461,787.72894
795.78754,805.05493,801.8315,788.1319
786.9231,804.65204,800.6227,780.07324
792.5641,804.2491,801.8315,780.07324
788.93774,807.8755,801.4286,782.8938
782.49084,803.44324,796.99634,776.4469
780.07324,803.0403,799.011,776.8498
777.6557,803.0403,801.4286,781.28204
788.93774,809.0842,799.41394,778.46155
776.04395,800.6227,801.4286,781.28204
774.0293,805.05493,804.2491,782.0879
767.1795,802.6374,805.8608,775.64105
761.13556,799.011,804.65204,760.32965
761.53845,798.60803,802.23444,754.2857
758.315,799.011,803.8461,750.2564
765.9707,798.60803,806.26373,756.7033
778.0586,796.5934,805.8608,772.4176
786.9231,794.9817,803.0403,782.0879
792.1612,795.78754,792.96704,786.52014
790.9524,796.1905,788.5348,784.90845
796.1905,800.2198,798.20514,792.96704
803.8461,798.20514,800.2198,793.36993
806.6667,798.60803,799.41394,793.36993
805.8608,797.8022,799.011,798.60803
808.68134,789.7436,798.20514,795.38464
807.47253,793.36993,799.011,793.36993
803.44324,797.3993,800.6227,799.81683
801.8315,796.99634,799.41394,803.0403
801.4286,799.011,797.8022,797.8022
800.2198,801.4286,801.02563,790.9524
804.2491,798.60803,800.6227,791.75824
808.68134,798.20514,799.011,801.02563
796.99634,799.81683,800.6227,801.8315
788.5348,795.78754,800.6227,797.8022
789.7436,792.96704,801.4286,790.14655
779.67035,794.57874,802.23444,783.2967
770.40295,797.8022,806.6667,786.52014
770.40295,798.20514,809.0842,784.90845
766.77655,794.17584,802.6374,781.28204
766.3736,795.78754,799.81683,779.2674
763.95605,792.96704,798.20514,779.67035
761.53845,792.1612,802.23444,799.011
768.7912,800.6227,802.6374,814.7253
777.6557,803.0403,799.011,816.337
788.5348,800.2198,803.44324,814.3223
797.3993,795.78754,803.0403,820.7692
805.4579,796.99634,801.4286,831.2454
813.5165,801.4286,802.23444,838.49817
813.5165,803.44324,802.23444,840.10986
813.1135,804.2491,799.41394,831.2454
821.1722,805.8608,799.81683,832.0513
829.2308,807.47253,803.44324,837.6923
825.2015,806.6667,797.8022,835.6777
822.7839,809.4872,797.8022,836.8865
820.7692,812.3077,803.0403,833.663
814.7253,805.4579,801.02563,823.9927
810.696,799.41394,796.1905,826.0073
807.8755,803.0403,801.02563,830.4396
808.68134,806.6667,803.0403,826.4103
806.6667,805.05493,796.5934,820.7692
803.44324,805.4579,796.5934,817.1429
801.4286,805.8608,795.78754,825.2015
794.9817,805.4579,793.7729,828.4249
789.34064,801.8315,793.36993,823.1868
793.7729,799.011,797.3993,817.1429
788.5348,801.02563,803.8461,816.7399
786.52014,799.81683,803.0403,813.5165
790.54944,799.011,799.81683,812.71063
788.93774,801.8315,802.23444,813.1135
795.38464,804.65204,800.2198,801.4286
798.20514,805.8608,796.99634,795.38464
796.5934,804.2491,800.6227,796.99634
802.23444,805.4579,797.8022,796.99634
803.0403,808.2784,797.8022,811.50183
798.60803,807.0696,801.02563,823.9927
799.41394,804.65204,800.2198,817.5458
802.23444,803.0403,803.8461,817.1429
810.696,807.47253,805.4579,825.6044
811.50183,807.0696,802.6374,821.5751
804.2491,798.20514,797.3993,813.1135
799.011,797.3993,794.9817,812.3077
794.57874,801.02563,799.81683,811.0989
798.20514,799.011,803.0403,814.7253
798.20514,796.5934,803.44324,816.337
792.1612,796.5934,802.23444,813.1135
788.93774,796.5934,800.2198,803.0403
784.90845,802.6374,798.60803,796.5934
787.72894,802.6374,791.75824,811.9048
792.96704,797.8022,791.75824,808.2784
784.5055,800.2198,796.5934,797.8022
775.2381,804.65204,794.9817,796.5934
777.25275,802.23444,799.81683,789.34064
781.685,799.011,803.44324,789.7436
786.1172,799.81683,803.44324,791.3553
778.0586,799.41394,803.0403,791.3553
774.83514,799.81683,798.20514,792.1612
777.25275,801.8315,796.99634,793.7729
773.22345,798.60803,798.60803,788.93774
776.8498,797.8022,798.60803,790.14655
777.25275,796.1905,796.99634,798.60803
780.4762,797.3993,801.8315,795.78754
787.326,806.26373,805.8608,798.20514
782.0879,805.05493,800.6227,805.8608
784.90845,800.6227,797.8022,809.4872
799.011,803.44324,796.5934,809.4872
801.4286,801.4286,794.9817,800.6227
797.3993,798.60803,799.41394,790.14655
799.81683,794.9817,804.65204,794.57874
791.75824,794.57874,799.41394,792.5641
793.7729,798.60803,794.57874,785.31134
794.17584,795.38464,801.02563,799.41394
787.72894,792.96704,805.8608,792.5641
778.86444,794.57874,803.0403,795.38464
781.685,792.5641,803.8461,788.93774
773.22345,786.1172,805.4579,774.0293
773.22345,792.1612,806.26373,795.38464
780.4762,795.78754,800.6227,797.8022
776.8498,796.1905,799.41394,784.90845
776.8498,797.3993,804.65204,794.17584
770.40295,792.5641,802.6374,801.4286
769.59705,791.3553,796.5934,792.1612
772.4176,793.36993,796.99634,781.685
770,792.96704,802.6374,782.49084
776.04395,797.3993,803.44324,786.52014
782.49084,803.8461,798.60803,790.54944
781.685,799.81683,799.011,788.93774
781.28204,792.96704,804.65204,787.326
788.1319,799.41394,809.4872,792.96704
788.93774,805.8608,813.5165,801.4286
789.34064,803.44324,809.4872,810.293
790.14655,801.02563,804.65204,797.8022
794.9817,800.2198,807.47253,792.96704
805.4579,800.2198,806.26373,799.81683
800.2198,800.2198,799.011,792.1612
800.2198,799.81683,797.3993,792.1612
805.05493,804.65204,804.2491,797.3993
801.02563,805.05493,809.4872,797.3993
799.011,797.3993,805.4579,798.60803
798.60803,798.60803,802.6374,798.60803
801.8315,803.8461,805.4579,799.81683
801.4286,805.05493,808.68134,799.41394
796.99634,800.2198,805.4579,800.6227
799.011,800.6227,796.5934,801.02563
805.4579,806.6667,798.20514,800.6227
810.696,807.0696,805.4579,808.2784
820.3663,808.68134,806.6667,807.8755
830.4396,813.1135,805.05493,803.0403
825.6044,811.9048,803.44324,799.41394
814.7253,807.47253,803.8461,800.6227
823.1868,810.293,802.23444,807.47253
825.2015,807.47253,801.4286,806.6667
817.1429,802.6374,797.8022,801.8315
821.5751,805.8608,800.2198,808.68134
824.7985,811.0989,806.6667,810.696
818.3516,811.50183,807.0696,806.6667
810.696,808.2784,802.6374,809.4872
811.0989,808.2784,802.23444,809.0842
813.5165,811.9048,802.23444,800.2198
820.3663,807.8755,803.44324,806.26373
818.3516,800.2198,804.2491,812.3077
814.7253,801.02563,799.81683,806.26373
815.5311,803.44324,797.3993,803.8461
808.68134,802.23444,796.99634,796.5934
797.8022,798.60803,796.99634,795.78754
796.1905,799.011,801.8315,799.41394
803.44324,800.6227,806.6667,799.81683
805.8608,797.8022,805.8608,799.41394
804.65204,800.6227,802.23444,796.99634
807.8755,807.0696,799.81683,801.4286
802.6374,800.6227,798.20514,792.5641
801.4286,798.20514,798.20514,788.1319
809.89014,801.4286,798.20514,792.5641
810.696,803.8461,797.8022,790.9524
809.89014,807.8755,791.75824,789.7436
810.696,803.0403,790.14655,795.78754
809.4872,800.2198,798.20514,805.4579
809.89014,801.8315,797.3993,801.02563
806.6667,803.0403,795.78754,797.8022
800.6227,799.81683,800.6227,791.3553
798.60803,801.02563,801.4286,788.93774
794.17584,805.4579,797.3993,803.8461
791.3553,802.6374,798.60803,800.2198
786.52014,800.6227,802.6374,791.3553
777.6557,796.99634,797.8022,796.99634
787.72894,795.78754,796.99634,806.26373
793.36993,796.99634,799.41394,804.65204
792.1612,798.20514,799.81683,798.60803
798.20514,802.23444,803.0403,804.2491
793.36993,803.0403,802.6374,798.60803
791.75824,797.8022,799.41394,788.1319
795.78754,797.3993,794.17584,790.14655
793.7729,795.78754,797.3993,792.5641
796.1905,792.96704,803.0403,785.7143
796.99634,796.5934,803.0403,778.0586
797.8022,798.60803,804.65204,786.1172
798.60803,801.8315,804.2491,795.38464
805.8608,803.8461,800.6227,794.17584
811.0989,801.02563,800.2198,793.36993
803.44324,797.3993,796.1905,793.7729
805.4579,800.2198,795.38464,795.78754
805.4579,799.41394,797.8022,800.2198
804.2491,796.99634,801.4286,799.41394
805.4579,796.99634,801.02563,799.011
801.4286,795.78754,794.9817,798.20514
796.99634,795.78754,794.57874,796.1905
792.96704,794.9817,796.99634,798.20514
790.9524,796.99634,799.011,790.54944
786.52014,798.60803,799.81683,780.4762
777.25275,801.02563,802.6374,779.67035
771.6117,804.65204,805.8608,786.1172
770,801.4286,804.2491,788.93774
770.40295,799.011,804.2491,787.72894
769.59705,804.2491,805.4579,788.93774
772.01465,801.02563,804.2491,787.326
774.43225,803.0403,805.05493,781.28204
782.49084,805.8608,807.0696,788.1319
792.1612,807.0696,804.65204,790.54944
795.38464,802.6374,802.6374,778.0586
793.7729,800.6227,801.8315,778.0586
787.326,796.99634,800.6227,767.5824
790.14655,800.2198,798.20514,769.59705
792.5641,803.8461,794.57874,780.87915
792.96704,803.0403,798.20514,779.2674
805.8608,809.0842,805.05493,785.7143
812.71063,804.2491,806.26373,787.326
810.293,803.0403,805.4579,784.10254
806.6667,806.26373,804.65204,784.90845
808.68134,808.68134,806.26373,794.9817
811.0989,811.9048,806.6667,806.26373
805.8608,811.0989,809.89014,807.8755
803.44324,813.91943,813.5165,807.8755
798.20514,811.50183,805.05493,804.65204
792.96704,806.26373,803.44324,797.3993
792.96704,808.2784,803.8461,794.9817
790.14655,810.293,801.4286,792.96704
786.1172,807.47253,802.6374,783.69965
776.04395,809.0842,805.05493,783.69965
772.4176,809.4872,807.0696,790.9524
773.6264,803.44324,802.6374,786.1172
774.0293,803.0403,804.2491,785.7143
777.25275,807.47253,803.0403,784.10254
776.4469,803.0403,794.57874,778.86444
782.8938,801.8315,798.60803,776.04395
785.7143,805.4579,798.20514,779.67035
780.07324,806.6667,793.7729,773.22345
789.7436,809.89014,795.78754,765.16486
799.81683,811.0989,797.8022,778.86444
800.2198,815.5311,805.05493,790.9524
804.2491,817.9487,807.8755,794.17584
807.8755,813.1135,807.47253,796.1905
806.6667,811.0989,806.6667,788.93774
803.8461,814.3223,805.8608,787.72894
803.8461,813.5165,805.8608,792.96704
808.2784,810.293,803.0403,793.36993
797.8022,805.8608,800.6227,780.4762
793.36993,806.6667,799.011,782.49084
800.6227,809.4872,800.6227,790.54944
796.1905,809.4872,805.05493,788.5348
791.3553,812.3077,806.26373,799.41394
793.36993,813.5165,808.2784,799.41394
792.5641,815.12823,811.0989,798.20514
788.93774,811.50183,809.0842,797.8022
790.9524,809.4872,810.696,799.41394
790.9524,811.9048,811.0989,802.6374
786.1172,810.293,807.8755,795.38464
788.5348,807.47253,807.8755,785.7143
790.14655,809.0842,808.68134,789.34064
786.9231,809.89014,803.8461,794.57874
782.0879,810.293,798.60803,788.5348
785.31134,811.50183,801.4286,786.1172
789.7436,807.47253,797.3993,784.10254
788.5348,801.4286,789.7436,781.28204
796.99634,804.2491,797.3993,781.685
805.4579,809.89014,803.8461,793.36993
805.05493,809.89014,800.6227,806.6667
808.68134,813.1135,800.6227,802.6374
821.978,818.3516,803.8461,805.4579
820.7692,814.3223,801.4286,804.65204
813.1135,812.71063,799.81683,801.8315
813.1135,811.50183,801.02563,808.68134
820.3663,813.5165,801.02563,807.0696
823.1868,816.7399,801.02563,803.8461
825.6044,818.3516,802.23444,818.7546
820.7692,817.1429,801.4286,822.381
817.1429,814.3223,805.8608,815.12823
816.337,812.71063,809.0842,809.0842
809.89014,813.5165,804.65204,799.41394
810.696,815.9341,800.2198,801.02563
803.44324,811.9048,797.3993,799.81683
801.02563,809.0842,801.02563,794.57874
799.81683,807.8755,805.05493,787.72894
794.9817,810.293,803.8461,786.9231
796.99634,814.7253,805.8608,793.7729
795.38464,816.7399,811.9048,800.2198
787.326,811.0989,806.26373,788.1319
788.5348,810.696,804.2491,782.8938
796.99634,815.5311,812.3077,788.93774
800.2198,815.9341,812.71063,795.78754
808.2784,818.3516,812.71063,804.2491
817.1429,811.50183,811.0989,811.0989
822.7839,807.8755,802.6374,807.8755
822.381,807.47253,796.5934,804.2491
819.15753,809.0842,803.0403,808.68134
815.9341,807.0696,807.8755,809.4872
811.9048,814.3223,813.91943,802.6374
816.7399,809.4872,807.8755,810.293
811.0989,806.6667,806.6667,809.0842
809.4872,805.8608,802.6374,799.41394
814.7253,809.4872,808.2784,813.5165
809.89014,805.05493,801.4286,805.4579
802.23444,805.4579,799.41394,809.89014
801.02563,805.8608,794.17584,800.6227
807.0696,805.8608,799.011,799.81683
804.65204,807.0696,807.0696,793.36993
800.2198,803.8461,803.44324,793.36993
796.1905,805.4579,799.011,804.65204
793.7729,806.26373,802.23444,800.2198
789.34064,804.65204,803.0403,795.78754
781.28204,809.89014,801.8315,787.326
767.98535,805.05493,799.011,778.0586
771.2088,801.4286,797.8022,774.43225
775.2381,803.44324,799.011,776.4469
772.4176,804.2491,805.05493,774.0293
769.59705,803.8461,801.8315,782.0879
776.8498,804.2491,804.65204,775.2381
782.8938,805.8608,799.41394,778.86444
789.7436,802.23444,799.41394,782.49084
796.5934,802.6374,806.6667,780.07324
799.81683,797.3993,801.4286,795.38464
814.3223,808.2784,800.6227,797.3993
795.38464,803.44324,805.05493,778.86444
819.9634,811.9048,796.99634,790.14655
807.47253,801.8315,801.02563,799.011
829.6337,813.91943,799.011,799.41394
823.9927,810.293,793.7729,807.47253
808.68134,801.02563,792.96704,790.54944
804.2491,799.011,802.6374,797.8022
802.23444,801.02563,808.2784,807.47253
798.60803,799.81683,812.3077,803.0403
794.9817,796.5934,812.3077,799.41394
788.5348,790.9524,807.8755,789.7436
785.7143,792.5641,806.26373,788.1319
783.2967,792.96704,804.2491,790.14655
776.04395,789.7436,801.4286,784.10254
773.6264,790.9524,797.3993,786.1172
769.19415,790.9524,796.1905,782.0879
762.3443,790.14655,795.78754,770
765.56775,790.14655,797.8022,771.6117
765.56775,789.34064,800.2198,776.8498
762.74725,790.54944,801.4286,774.0293
765.16486,792.1612,809.0842,773.6264
766.3736,787.72894,807.0696,771.2088
769.19415,785.7143,801.8315,771.2088
772.4176,792.1612,806.26373,780.07324
778.46155,792.1612,811.50183,784.90845
779.67035,791.3553,811.9048,783.69965
779.67035,795.38464,811.50183,781.685
785.7143,798.60803,806.26373,783.2967
788.5348,800.2198,806.6667,792.5641
788.93774,797.3993,804.2491,794.9817
795.38464,799.81683,801.02563,789.7436
798.60803,798.60803,798.20514,790.9524
804.2491,801.4286,801.8315,799.41394
807.8755,800.6227,804.2491,797.3993
807.8755,799.011,800.6227,801.4286
810.696,807.47253,801.02563,802.6374
805.8608,803.8461,801.4286,793.36993
801.4286,801.02563,795.78754,786.1172
797.8022,805.4579,796.1905,789.34064
794.57874,804.2491,800.2198,794.57874
794.17584,801.8315,794.9817,783.2967
794.9817,801.8315,796.99634,784.90845
795.78754,804.2491,797.8022,784.90845
794.9817,801.4286,790.9524,780.4762
795.78754,801.8315,794.9817,785.7143
786.52014,799.011,796.99634,786.52014
784.90845,795.78754,804.2491,786.9231
789.7436,796.1905,807.8755,781.28204
792.5641,800.6227,803.44324,779.67035
797.3993,807.0696,803.44324,786.1172
796.5934,804.65204,801.8315,789.7436
797.3993,800.2198,800.2198,790.14655
801.02563,801.8315,797.8022,791.75824
805.4579,804.2491,799.011,798.60803
809.89014,807.47253,802.6374,805.4579
816.7399,807.47253,804.2491,813.91943
821.5751,803.44324,802.6374,807.8755
821.5751,803.44324,798.20514,805.4579
816.337,804.2491,797.3993,807.47253
814.3223,806.6667,796.1905,801.8315
814.3223,806.26373,790.9524,802.23444
814.7253,804.2491,796.1905,805.05493
817.9487,805.4579,801.8315,802.6374
819.5604,808.68134,800.6227,794.17584
818.7546,809.89014,800.2198,794.57874
805.8608,805.8608,799.011,797.3993
801.02563,808.2784,798.60803,801.4286
815.5311,808.2784,801.02563,797.3993
801.8315,808.2784,800.2198,797.8022
804.65204,807.8755,799.81683,798.60803
807.47253,808.2784,805.8608,807.47253
804.65204,804.65204,805.8608,806.26373
803.8461,802.23444,799.41394,796.1905
797.8022,802.23444,805.05493,796.99634
788.1319,799.41394,806.6667,791.75824
791.75824,797.3993,807.0696,788.93774
801.4286,802.23444,806.6667,788.1319
802.23444,805.05493,803.0403,792.96704
791.75824,806.6667,800.2198,799.41394
808.2784,804.2491,796.1905,811.9048
791.3553,805.4579,805.05493,800.2198
814.3223,801.4286,801.02563,814.7253
808.68134,795.78754,801.4286,794.9817
811.0989,801.02563,803.8461,797.8022
808.68134,793.36993,801.02563,803.8461
799.41394,786.52014,793.7729,794.57874
803.44324,792.1612,796.5934,799.41394
806.26373,788.93774,800.2198,797.8022
806.6667,794.17584,803.0403,795.78754
803.0403,795.78754,799.011,788.5348
801.8315,794.17584,799.011,794.57874
801.4286,794.9817,803.44324,805.05493
804.2491,798.60803,805.05493,801.02563
799.41394,798.20514,805.05493,793.36993
787.72894,796.5934,807.47253,794.57874
784.90845,794.9817,807.8755,801.8315
787.72894,798.20514,804.2491,799.011
783.69965,799.81683,800.6227,788.1319
778.0586,796.99634,796.1905,774.83514
784.90845,801.4286,799.41394,777.25275
790.54944,805.4579,801.8315,794.17584
790.54944,807.47253,795.78754,798.60803
797.3993,809.0842,800.6227,798.60803
803.0403,805.8608,804.2491,805.8608
802.6374,801.8315,803.44324,803.8461
806.6667,800.6227,807.8755,806.26373
807.8755,798.20514,804.2491,804.2491
808.2784,800.6227,803.44324,800.6227
800.2198,801.8315,807.0696,801.4286
796.99634,801.02563,804.65204,799.41394
803.0403,802.6374,801.4286,795.38464
804.2491,801.4286,804.2491,793.36993
803.0403,801.8315,808.2784,801.02563
797.3993,805.05493,808.2784,804.65204
792.5641,805.05493,803.0403,798.20514
792.96704,799.81683,793.36993,792.1612
791.3553,798.60803,795.38464,794.9817
790.14655,797.3993,800.6227,792.96704
789.34064,798.20514,798.20514,781.28204
778.86444,799.81683,801.8315,778.46155
771.2088,796.1905,799.81683,775.64105
770.80585,796.1905,796.1905,778.86444
785.31134,803.44324,799.81683,779.2674
772.4176,798.20514,796.1905,768.3883
772.01465,795.78754,800.2198,767.98535
776.4469,793.7729,803.44324,778.0586
780.87915,796.1905,803.0403,778.86444
786.52014,795.38464,804.65204,784.90845
797.8022,796.5934,805.8608,787.326
786.52014,796.5934,803.44324,788.1319
779.67035,798.20514,803.44324,791.75824
796.5934,804.65204,806.26373,795.78754
802.23444,806.6667,805.8608,798.20514
793.7729,806.6667,796.5934,785.7143
789.7436,803.8461,795.38464,776.4469
796.5934,801.4286,797.8022,779.67035
795.78754,800.2198,799.41394,783.69965
790.9524,800.6227,801.02563,785.7143
789.7436,800.2198,801.02563,783.69965
794.17584,801.02563,801.02563,787.72894
785.7143,801.8315,800.2198,788.5348
783.2967,802.6374,802.6374,792.5641
788.93774,799.81683,805.4579,794.17584
784.10254,799.011,805.05493,789.7436
780.4762,800.6227,802.23444,782.8938
784.90845,796.5934,800.2198,787.326
780.4762,792.5641,800.2198,780.87915
784.5055,795.78754,803.8461,779.67035
791.75824,798.60803,802.23444,787.326
784.10254,796.5934,801.8315,777.6557
783.69965,794.9817,806.6667,775.2381
795.78754,795.78754,805.4579,784.10254
792.1612,793.7729,801.4286,789.34064
789.7436,791.3553,799.011,789.7436
803.0403,794.9817,801.4286,793.36993
812.3077,798.60803,797.3993,796.99634
811.9048,799.41394,797.8022,803.8461
809.4872,799.81683,804.65204,808.68134
813.5165,801.4286,803.0403,804.2491
812.3077,805.05493,796.1905,798.20514
810.293,803.8461,793.7729,802.6374
811.9048,800.2198,797.3993,808.68134
808.68134,801.4286,803.8461,805.8608
803.8461,800.2198,805.8608,805.05493
800.6227,799.81683,797.8022,802.23444
799.81683,800.6227,794.17584,799.011
798.60803,799.41394,800.2198,799.81683
793.7729,795.78754,801.8315,799.81683
791.3553,795.78754,803.8461,801.4286
793.7729,801.02563,805.8608,801.4286
796.1905,801.4286,805.05493,798.20514
787.326,802.23444,805.4579,794.17584
787.326,803.0403,807.0696,795.78754
789.34064,799.41394,799.011,784.5055
798.20514,803.0403,807.8755,788.93774
788.1319,801.8315,801.02563,784.10254
803.0403,805.05493,807.47253,793.7729
805.8608,805.4579,803.8461,792.1612
805.05493,804.65204,799.81683,786.52014
804.65204,807.0696,799.81683,793.7729
806.6667,807.0696,799.81683,789.7436
807.47253,811.0989,803.8461,789.34064
812.71063,811.9048,806.6667,802.6374
814.7253,809.89014,807.47253,806.6667
808.2784,810.696,805.8608,805.05493
804.2491,807.0696,803.0403,803.8461
807.47253,804.2491,800.2198,802.23444
805.8608,803.8461,794.9817,801.8315
803.8461,807.47253,802.23444,802.23444
803.8461,807.0696,802.6374,803.8461
801.4286,806.6667,797.8022,806.26373
799.011,808.68134,802.6374,802.6374
800.2198,805.4579,804.65204,796.99634
801.02563,806.26373,806.26373,798.20514
795.78754,806.26373,804.65204,805.05493
790.9524,801.02563,803.44324,805.8608
793.36993,799.81683,803.0403,803.44324
789.7436,799.41394,804.2491,801.4286
788.93774,796.1905,800.2198,793.7729
781.28204,796.1905,798.20514,776.4469
787.72894,796.5934,798.20514,781.685
792.1612,797.3993,802.23444,783.2967
791.3553,794.9817,797.3993,770
790.9524,793.36993,792.1612,774.83514
790.14655,796.99634,794.17584,780.4762
782.0879,794.57874,799.81683,780.87915
794.57874,801.02563,803.8461,807.0696
789.34064,796.1905,799.41394,777.25275
793.36993,797.3993,804.65204,790.14655
789.7436,795.78754,801.02563,785.31134
786.9231,793.36993,794.57874,781.28204
791.3553,798.60803,798.20514,789.7436
794.9817,802.23444,800.2198,792.1612
796.1905,801.02563,798.60803,788.5348
792.1612,799.81683,803.0403,794.57874
789.34064,800.2198,805.4579,794.57874
795.38464,803.8461,807.8755,790.9524
795.38464,808.2784,808.2784,792.5641
794.17584,809.0842,807.8755,801.4286
793.7729,807.47253,803.8461,795.78754
790.54944,807.8755,802.6374,784.10254
786.1172,808.2784,802.6374,778.46155
778.86444,806.6667,797.8022,776.8498
785.31134,801.4286,800.2198,780.07324
790.9524,803.44324,805.05493,777.25275
780.4762,804.65204,799.011,775.2381
779.2674,802.6374,794.17584,780.07324
786.1172,801.4286,797.3993,785.31134
777.6557,794.57874,796.1905,781.28204
774.0293,796.99634,792.96704,776.4469
779.2674,805.4579,793.36993,772.01465
777.6557,806.26373,795.38464,774.83514
776.4469,807.8755,792.1612,780.87915
788.1319,803.0403,799.41394,781.685
784.10254,803.44324,796.99634,780.07324
790.14655,795.78754,791.75824,778.86444
789.7436,801.02563,790.54944,780.07324
790.9524,804.65204,794.17584,782.0879
