eeg_1,eeg_2,eeg_3,eeg_4
755.4945,811.9048,792.96704,794.57874
758.71796,803.44324,785.7143,673.2967
731.31866,761.53845,770.40295,479.08426
729.304,767.98535,774.0293,498.4249
751.8681,786.9231,789.7436,693.44324
762.74725,803.44324,793.36993,774.0293
756.7033,819.9634,785.7143,659.19415
735.7509,820.3663,774.43225,484.32236
762.74725,858.6447,792.96704,684.17584
776.8498,873.1502,802.6374,786.9231
772.01465,859.85345,792.5641,695.4579
764.35895,859.45056,786.9231,521.79486
765.16486,872.3443,793.7729,502.85715
784.5055,853.00366,802.23444,665.2381
791.3553,831.2454,797.3993,767.5824
783.2967,837.28937,790.54944,703.91943
774.83514,828.8278,778.46155,515.7509
770.0,832.4542,779.2674,455.7143
736.1539,829.6337,774.83514,487.94873
778.86444,850.58606,790.14655,618.49817
787.326,855.82416,796.1905,766.3736
788.1319,844.94507,803.8461,732.1245
765.9707,827.2161,789.7436,551.6117
744.21246,828.4249,771.6117,460.1465
761.13556,863.47986,791.75824,613.2601
775.64105,852.6007,798.60803,772.01465
769.59705,833.2601,793.36993,760.32965
757.9121,830.84247,786.52014,608.8278
739.7802,809.4872,777.6557,504.06595
750.2564,826.8132,793.7729,633.4066
774.43225,840.10986,806.26373,794.17584
773.22345,836.8865,801.02563,802.23444
760.32965,820.3663,789.34064,539.5238
778.0586,837.6923,805.4579,661.2088
796.5934,849.3773,814.7253,832.0513
799.81683,861.06226,815.12823,861.8681
794.17584,842.1245,799.41394,716.0073
776.04395,800.6227,788.5348,573.7729
772.01465,813.91943,803.8461,668.86444
796.99634,835.2747,818.3516,857.4359
803.44324,855.42126,820.7692,919.89014
789.34064,840.5128,799.81683,782.8938
760.7326,829.6337,789.34064,656.3736
779.2674,807.8755,787.72894,624.5421
792.1612,822.381,837.28937,900.9524
793.7729,828.022,830.84247,982.74725
777.25275,817.5458,811.0989,863.47986
755.4945,817.5458,803.8461,682.1612
751.4652,792.1612,812.3077,709.5604
770.80585,784.5055,827.2161,908.20514
783.69965,808.2784,813.91943,705.9341
786.1172,814.3223,831.2454,1023.8461
777.6557,808.2784,814.3223,923.5165
758.71796,794.57874,796.1905,729.304
757.1062,794.9817,799.011,719.2308
776.8498,799.41394,813.91943,915.05493
784.10254,805.8608,809.0842,972.674
751.4652,777.25275,787.326,766.3736
741.79486,786.9231,789.7436,734.94507
761.9414,823.9927,815.9341,930.7692
775.64105,820.7692,818.3516,1076.63
765.9707,789.34064,808.2784,1026.6666
748.6447,786.1172,799.41394,830.0366
738.5714,786.9231,798.20514,747.03296
750.65936,803.0403,819.5604,928.7546
756.30035,809.89014,825.6044,1092.7472
795.38464,820.7692,821.5751,1054.0659
751.8681,811.0989,820.3663,1070.1831
732.52747,797.8022,809.89014,879.59705
713.9927,776.4469,802.6374,765.16486
724.4689,800.6227,817.1429,933.1868
739.7802,811.9048,829.2308,1126.5934
739.3773,809.89014,824.7985,1135.0549
712.381,787.326,806.6667,950.9158
698.2784,757.50916,799.41394,814.7253
717.2161,772.01465,813.1135,960.989
732.9304,788.5348,820.7692,1162.0513
749.0476,795.38464,823.5897,1200.3297
734.94507,783.2967,810.293,1029.8901
707.9487,764.7619,797.8022,873.95605
722.8571,779.67035,817.9487,1006.52014
751.06226,801.02563,830.4396,1228.5348
732.1245,774.83514,806.6667,1127.8022
713.9927,774.83514,788.93774,960.989
750.65936,795.78754,825.6044,1285.751
748.6447,786.52014,824.7985,1253.5165
751.4652,768.7912,816.337,1320.8059
744.61536,764.7619,801.8315,1174.9451
731.7216,770.80585,791.75824,984.35895
729.304,776.8498,800.2198,1028.2784
725.6777,792.5641,809.0842,1048.8279
737.76556,788.93774,816.7399,1241.8315
744.61536,789.34064,815.12823,1330.4762
733.3333,772.8205,793.36993,1190.6593
716.0073,763.95605,778.0586,987.1795
725.2747,765.9707,788.93774,996.8498
745.0183,794.9817,812.3077,1208.7913
758.71796,808.68134,819.9634,1322.8206
749.0476,773.6264,803.8461,1208.7913
729.304,765.56775,783.2967,988.7912
728.9011,785.31134,789.34064,944.0659
745.0183,782.49084,804.65204,1139.8901
755.09155,780.4762,805.8608,1269.6337
749.0476,775.64105,794.57874,1176.5568
731.31866,760.32965,778.86444,959.7802
722.0513,751.4652,782.0879,894.90845
743.4066,767.5824,800.6227,1066.9597
757.50916,781.685,807.8755,1208.7913
755.89746,796.99634,806.6667,1163.2601
740.989,779.2674,788.5348,947.28937
722.4542,747.03296,778.86444,835.2747
740.989,769.19415,798.60803,995.64105
758.71796,791.3553,811.0989,1148.3517
750.65936,785.7143,802.23444,1110.0732
721.2454,789.34064,782.49084,900.9524
706.7399,785.7143,774.43225,771.6117
739.7802,788.93774,804.65204,1083.0769
722.8571,779.2674,793.36993,920.293
738.1685,785.31134,797.8022,1055.2748
726.08057,771.6117,784.90845,861.4652
713.9927,779.2674,778.0586,712.381
716.4103,782.49084,787.72894,823.9927
739.7802,765.56775,799.41394,988.3883
744.61536,765.16486,794.9817,999.67035
731.7216,767.98535,777.6557,820.7692
716.4103,763.1502,767.98535,637.8388
723.2601,775.2381,786.1172,730.10986
749.85345,788.5348,808.68134,926.337
748.24176,784.10254,804.65204,962.6007
734.94507,791.75824,790.9524,805.4579
724.87177,776.8498,779.67035,618.9011
730.5128,764.35895,786.1172,668.86444
748.24176,804.2491,811.50183,867.9121
761.9414,801.02563,815.5311,930.3663
756.30035,755.89746,789.7436,780.4762
747.03296,757.50916,776.4469,593.91943
747.8388,771.2088,787.326,619.707
765.9707,786.52014,806.26373,813.1135
782.8938,791.3553,809.89014,902.1612
767.5824,781.685,790.54944,779.2674
738.97437,769.59705,775.2381,587.8755
730.5128,769.59705,778.86444,572.1612
755.4945,786.1172,796.1905,758.315
770.0,793.7729,802.6374,873.5531
727.6923,792.96704,772.4176,588.68134
709.15753,745.0183,765.9707,541.13556
755.09155,810.696,793.7729,789.7436
724.87177,757.50916,782.0879,721.6484
749.0476,783.2967,791.75824,866.7033
748.6447,781.685,781.28204,801.4286
743.8095,773.22345,765.56775,605.2015
746.2271,772.01465,770.40295,544.35895
762.74725,780.87915,787.326,724.0659
778.0586,784.10254,795.38464,873.95605
784.5055,780.4762,783.2967,835.6777
775.64105,772.4176,771.2088,649.5238
749.85345,783.2967,767.1795,546.77655
797.8022,800.6227,797.3993,865.4945
796.1905,801.02563,788.93774,849.7802
764.35895,766.3736,769.19415,661.6117
743.8095,758.315,757.1062,521.79486
764.35895,786.9231,778.0586,670.87915
760.32965,792.5641,781.685,704.7253
790.9524,803.0403,804.65204,859.45056
768.3883,784.5055,778.86444,682.5641
755.89746,774.0293,775.64105,531.8681
760.7326,782.8938,789.34064,631.39197
774.43225,818.3516,806.26373,822.7839
775.64105,813.1135,803.8461,844.1392
760.7326,768.7912,780.07324,680.14655
784.10254,794.9817,796.99634,853.4066
733.3333,755.09155,764.35895,507.28937
733.73627,768.3883,777.25275,575.78754
753.47986,792.96704,796.1905,773.6264
760.7326,784.10254,798.20514,834.87177
747.4359,776.4469,784.10254,693.8461
730.9158,780.87915,772.8205,517.3626
731.7216,765.56775,779.2674,557.6557
748.24176,778.86444,801.4286,754.68866
740.989,797.8022,787.72894,718.022
749.0476,786.52014,803.8461,833.663
725.6777,776.8498,767.98535,532.27106
721.2454,751.4652,773.22345,544.35895
748.6447,772.8205,797.3993,749.0476
763.1502,782.8938,801.02563,847.3626
760.7326,783.2967,790.9524,755.4945
746.2271,768.7912,776.04395,572.1612
728.0952,777.25275,778.46155,543.5531
747.4359,796.99634,799.81683,740.989
767.5824,781.685,805.8608,859.45056
759.12085,776.04395,791.75824,781.28204
738.97437,770.40295,774.83514,595.12823
724.0659,780.07324,772.4176,546.3736
736.55676,783.69965,783.69965,711.978
757.9121,772.4176,792.5641,838.49817
755.4945,768.7912,785.7143,798.20514
745.0183,770.40295,772.4176,616.4835
728.49817,773.22345,776.4469,532.27106
730.10986,780.87915,794.17584,687.8022
751.8681,794.17584,804.65204,839.304
754.2857,791.3553,794.9817,820.7692
738.97437,776.8498,776.4469,649.12085
720.4396,782.49084,770.0,540.32965
730.10986,783.69965,784.90845,673.2967
749.85345,792.1612,796.5934,840.10986
758.71796,786.9231,793.7729,836.8865
751.8681,751.06226,774.0293,662.01465
730.10986,753.8828,766.3736,543.5531
738.97437,770.0,783.69965,661.2088
767.98535,778.86444,799.011,831.6484
769.19415,786.1172,800.2198,855.0183
758.315,777.25275,778.0586,699.89014
746.2271,769.19415,763.95605,550.0
747.4359,775.2381,779.67035,642.27106
768.3883,785.7143,796.5934,839.304
776.04395,786.1172,794.17584,892.0879
776.04395,802.6374,784.10254,754.2857
766.77655,807.8755,772.4176,590.293
761.53845,767.1795,765.9707,621.7216
779.2674,764.7619,780.4762,806.26373
787.326,785.31134,788.1319,883.22345
769.59705,775.64105,778.0586,750.65936
763.1502,768.7912,767.1795,579.011
756.7033,776.8498,774.83514,620.5128
765.9707,781.685,797.3993,884.83514
758.315,784.5055,794.57874,802.23444
755.09155,782.0879,789.7436,793.36993
749.85345,775.2381,779.2674,612.0513
740.989,795.78754,788.5348,606.0073
739.7802,799.41394,802.6374,790.9524
755.4945,766.77655,797.8022,892.8938
753.0769,769.59705,786.52014,817.5458
734.1392,776.4469,776.4469,634.21246
734.5421,762.74725,782.0879,595.5311
751.4652,769.19415,799.81683,774.0293
766.3736,784.90845,809.4872,911.02563
762.74725,785.7143,804.65204,862.27106
740.58606,770.40295,781.28204,674.5055
724.0659,764.35895,776.04395,593.1135
741.39197,775.64105,795.38464,751.4652
755.89746,808.68134,808.68134,906.99634
755.4945,801.8315,800.6227,865.89746
745.42126,762.74725,777.6557,669.67035
732.9304,766.77655,777.6557,572.96704
737.76556,779.2674,791.75824,723.663
755.4945,796.5934,807.47253,879.19415
761.9414,815.12823,812.71063,871.9414
743.4066,795.38464,795.38464,694.65204
732.9304,784.10254,791.3553,675.7143
750.2564,804.65204,803.44324,846.9597
750.65936,797.8022,800.6227,857.03296
738.1685,801.4286,789.34064,711.5751
725.6777,788.5348,776.8498,559.67035
737.3626,770.40295,780.4762,627.3626
752.674,793.36993,792.5641,807.47253
722.8571,766.77655,784.10254,556.04395
757.50916,793.7729,786.52014,707.1429
730.10986,777.25275,768.3883,539.12085
759.12085,801.4286,793.36993,849.7802
722.4542,773.6264,774.0293,605.2015
755.89746,795.38464,797.8022,795.78754
768.3883,808.2784,802.23444,854.61536
749.45056,781.685,784.5055,722.0513
733.3333,759.92676,769.19415,541.13556
728.9011,794.9817,777.25275,583.8461
752.27106,796.99634,797.3993,774.43225
766.77655,767.5824,798.20514,835.2747
758.315,771.6117,783.69965,728.9011
747.03296,768.7912,770.40295,554.0293
742.1978,772.8205,777.6557,551.6117
768.3883,789.34064,804.2491,745.0183
784.5055,789.7436,804.2491,841.31866
765.9707,780.07324,786.52014,752.27106
750.65936,768.3883,770.80585,572.5641
753.47986,765.56775,771.2088,543.95605
765.56775,792.96704,791.75824,718.8278
775.64105,817.9487,804.2491,840.5128
766.3736,780.4762,788.1319,774.83514
747.4359,745.82416,765.16486,581.4286
745.0183,751.4652,770.40295,525.82416
761.13556,766.77655,793.7729,699.0842
774.0293,782.8938,805.4579,834.0659
772.8205,783.2967,799.011,804.65204
766.77655,784.10254,786.52014,647.1062
763.95605,783.2967,801.4286,725.2747
758.71796,788.1319,787.72894,578.60803
777.6557,787.72894,807.0696,865.09155
781.685,794.17584,801.02563,852.1978
772.8205,797.3993,789.7436,701.0989
758.315,776.4469,780.87915,596.337
765.56775,776.04395,793.36993,715.2015
784.10254,787.72894,806.6667,880.40295
778.0586,784.5055,802.23444,882.4176
761.13556,782.0879,789.34064,719.2308
752.674,777.6557,776.8498,591.0989
765.56775,794.17584,788.93774,694.65204
782.0879,805.05493,803.0403,861.8681
778.46155,803.8461,799.41394,890.07324
770.0,799.011,787.326,760.7326
759.5238,782.49084,776.04395,615.6777
756.30035,807.47253,794.9817,689.81683
779.2674,815.9341,812.3077,862.27106
778.46155,779.2674,803.0403,906.1905
759.5238,779.2674,793.7729,782.49084
757.1062,777.6557,778.86444,638.24176
753.47986,792.1612,786.9231,697.0696
765.16486,800.6227,810.293,869.12085
776.8498,784.5055,814.7253,942.0513
764.35895,778.0586,796.5934,835.6777
748.24176,774.0293,780.87915,672.8938
752.27106,776.04395,789.34064,693.0403
772.8205,781.685,804.2491,867.1062
782.8938,813.1135,807.8755,966.63007
777.6557,808.68134,795.38464,886.4469
770.40295,765.16486,776.04395,718.4249
775.2381,773.22345,784.10254,710.3663
794.9817,795.78754,806.26373,887.25275
804.2491,799.81683,811.0989,987.1795
793.7729,789.34064,795.38464,907.3993
771.2088,788.1319,778.46155,743.00366
752.27106,788.1319,778.46155,699.4872
759.12085,778.86444,788.5348,845.7509
774.43225,788.1319,798.20514,962.1978
760.32965,782.0879,786.9231,905.38464
737.76556,793.36993,775.64105,739.7802
736.1539,788.5348,780.4762,664.83514
740.18317,763.95605,788.5348,792.96704
755.89746,779.67035,794.17584,916.26373
765.56775,788.5348,793.36993,886.04395
746.2271,774.83514,773.6264,716.4103
734.94507,774.0293,765.16486,615.6777
742.6007,788.5348,786.9231,748.6447
754.2857,794.17584,799.81683,889.67035
767.1795,798.20514,800.6227,901.75824
743.4066,796.99634,790.14655,759.92676
731.7216,779.67035,780.4762,620.5128
757.50916,803.44324,801.02563,723.663
778.0586,808.2784,815.9341,886.4469
782.49084,781.28204,810.696,890.4762
775.2381,780.87915,803.8461,750.2564
753.47986,777.25275,792.1612,621.7216
754.2857,783.69965,801.4286,696.6667
787.72894,800.2198,825.2015,874.35895
791.75824,800.2198,821.5751,912.6374
772.4176,788.5348,804.65204,770.80585
759.12085,780.87915,787.72894,618.49817
765.56775,787.72894,788.93774,672.49084
790.14655,800.2198,811.0989,844.1392
803.0403,811.9048,814.7253,911.4286
789.7436,808.2784,794.17584,806.6667
773.6264,774.83514,776.8498,635.0183
769.59705,759.5238,790.54944,649.5238
782.8938,778.0586,806.26373,821.5751
803.0403,787.72894,812.3077,923.5165
801.8315,790.9524,803.44324,839.304
781.28204,783.2967,786.52014,670.07324
767.1795,778.86444,788.93774,673.2967
779.2674,789.7436,813.91943,838.9011
793.7729,793.36993,826.4103,937.619
778.0586,790.9524,805.4579,853.00366
763.1502,802.23444,791.3553,689.81683
765.16486,785.31134,791.75824,666.04395
776.8498,770.0,804.65204,811.50183
785.7143,797.3993,817.1429,929.9634
782.8938,789.7436,808.2784,882.4176
771.6117,763.1502,789.34064,709.15753
764.7619,767.1795,790.14655,652.74725
784.5055,778.86444,811.0989,808.2784
783.69965,779.67035,806.6667,919.0842
772.4176,771.6117,786.52014,747.03296
767.5824,767.5824,782.0879,665.64105
795.78754,788.1319,821.1722,948.0952
781.685,797.8022,797.8022,822.381
798.60803,802.23444,805.8608,967.4359
799.81683,773.22345,794.57874,942.8571
784.90845,765.16486,775.64105,789.34064
770.80585,764.7619,764.35895,673.69965
778.46155,776.04395,779.2674,782.8938
785.31134,792.96704,789.7436,944.0659
777.6557,785.31134,778.86444,951.31866
768.3883,771.6117,765.16486,801.02563
760.32965,768.7912,757.1062,682.5641
764.35895,778.86444,770.40295,784.90845
770.80585,786.52014,792.5641,944.87177
777.6557,800.6227,791.75824,971.06226
758.71796,782.49084,766.3736,822.7839
734.94507,744.61536,751.06226,662.01465
736.55676,752.27106,763.5531,736.55676
756.30035,778.86444,783.2967,923.1135
765.16486,794.17584,790.54944,980.7326
757.1062,788.1319,776.04395,856.63007
734.5421,772.01465,757.50916,685.38464
729.304,782.49084,764.35895,717.619
763.1502,804.65204,789.7436,915.4579
770.80585,785.7143,795.78754,992.8205
762.3443,770.0,778.86444,883.22345
754.2857,793.36993,765.9707,719.2308
743.8095,787.326,772.4176,724.4689
753.8828,766.3736,787.72894,895.31134
767.5824,774.43225,791.75824,990.0
762.3443,775.64105,780.4762,901.75824
749.0476,765.16486,764.7619,712.7839
748.6447,768.3883,769.59705,698.2784
761.9414,784.5055,786.52014,882.8205
776.4469,791.75824,792.96704,1002.8938
770.0,782.49084,785.7143,940.4396
743.00366,771.2088,764.35895,705.5311
769.19415,798.60803,785.7143,896.1172
776.8498,793.36993,795.78754,1026.6666
768.7912,765.16486,790.14655,969.85345
753.0769,755.4945,771.2088,790.54944
747.4359,765.9707,766.3736,746.2271
744.21246,764.35895,766.3736,705.5311
755.4945,772.8205,789.34064,844.5421
766.3736,780.87915,798.20514,990.40295
768.7912,780.07324,786.1172,970.65936
749.0476,768.7912,765.16486,780.07324
744.61536,774.83514,773.6264,810.293
767.1795,782.8938,791.3553,963.8095
769.59705,801.02563,786.1172,964.61536
728.49817,762.3443,749.85345,673.2967
767.1795,783.69965,767.1795,793.7729
752.27106,758.315,755.09155,661.6117
751.8681,768.7912,770.0,771.2088
769.19415,768.3883,782.49084,926.337
777.25275,777.25275,767.1795,809.0842
782.49084,776.4469,784.5055,957.3626
757.50916,772.01465,756.30035,641.4652
755.4945,773.22345,770.0,724.0659
765.16486,779.2674,782.49084,900.14655
771.2088,778.0586,784.90845,929.15753
763.95605,766.77655,774.0293,782.0879
748.24176,781.685,765.56775,621.31866
760.7326,782.49084,778.46155,678.1319
778.86444,765.56775,794.9817,860.65936
786.52014,775.64105,795.78754,913.8461
785.31134,792.96704,782.0879,786.1172
770.40295,782.8938,765.9707,612.4542
770.80585,766.3736,772.4176,626.55676
799.011,782.8938,793.36993,807.47253
792.96704,778.0586,772.8205,783.69965
808.68134,784.10254,792.1612,890.07324
777.25275,765.56775,759.92676,589.89014
768.3883,764.7619,767.98535,577.3993
781.28204,798.60803,788.1319,767.5824
792.5641,794.9817,793.7729,867.9121
782.0879,769.59705,780.4762,769.19415
767.5824,761.9414,765.9707,574.57874
759.92676,757.50916,763.5531,531.8681
771.2088,774.43225,779.67035,706.337
789.34064,787.72894,791.3553,828.022
779.2674,794.57874,782.0879,768.3883
745.42126,751.4652,755.4945,513.3333
764.35895,778.46155,764.7619,589.0842
749.85345,769.59705,776.4469,680.54944
767.1795,776.04395,791.3553,809.4872
764.35895,794.57874,786.52014,769.19415
749.45056,788.1319,772.8205,612.0513
736.55676,748.6447,767.5824,514.1392
756.7033,772.4176,792.5641,659.59705
769.59705,787.326,805.05493,821.5751
762.74725,782.0879,796.1905,817.1429
757.1062,780.07324,783.2967,662.4176
752.674,772.8205,774.43225,546.3736
763.5531,787.326,780.87915,675.7143
774.43225,807.8755,790.14655,832.4542
776.4469,807.8755,787.72894,844.1392
747.8388,769.59705,769.19415,695.8608
726.08057,770.80585,766.77655,563.2967
743.00366,785.31134,785.7143,671.685
754.68866,767.5824,792.96704,844.5421
755.09155,768.3883,789.7436,886.4469
744.61536,770.40295,770.80585,746.2271
733.73627,762.3443,754.68866,591.0989
743.4066,767.5824,771.2088,678.5348
765.56775,786.52014,791.75824,875.9707
764.7619,777.6557,772.4176,808.68134
774.43225,788.5348,790.54944,936.4103
751.06226,773.6264,760.32965,640.2564
745.82416,773.22345,776.8498,681.3553
756.30035,793.36993,799.41394,865.89746
761.9414,786.9231,791.75824,834.4689
743.8095,754.2857,767.5824,641.8681
767.5824,815.5311,807.47253,946.8865
740.58606,767.98535,774.83514,649.5238
776.8498,802.6374,804.2491,962.6007
765.16486,794.57874,797.3993,860.2564
761.9414,793.36993,788.93774,864.68866
746.63007,784.90845,773.22345,681.3553
741.79486,774.0293,777.25275,649.12085
758.315,776.8498,794.57874,840.9158
781.685,796.99634,799.81683,962.1978
784.5055,821.5751,785.31134,898.93774
768.3883,796.1905,767.5824,716.4103
753.47986,757.50916,763.1502,642.674
769.19415,793.36993,784.5055,819.5604
795.78754,806.26373,796.1905,962.6007
794.57874,786.1172,785.31134,914.2491
780.4762,781.28204,772.8205,740.58606
770.40295,777.25275,767.1795,646.30035
784.10254,786.9231,782.49084,796.99634
799.81683,788.5348,796.1905,948.49817
798.20514,788.1319,793.7729,929.9634
780.4762,784.5055,775.64105,753.0769
770.40295,797.8022,770.80585,645.89746
774.83514,786.1172,786.9231,771.6117
786.9231,769.59705,797.3993,920.293
794.9817,781.685,799.41394,929.5604
780.87915,772.8205,780.87915,776.8498
758.315,770.80585,769.59705,635.42126
755.89746,787.72894,786.1172,728.9011
778.46155,782.49084,801.02563,911.02563
783.2967,775.64105,797.8022,939.6337
762.3443,776.8498,780.87915,779.67035
740.58606,769.19415,762.74725,629.7802
748.6447,774.0293,775.2381,717.2161
778.86444,818.3516,803.44324,906.1905
780.87915,802.6374,796.5934,950.5128
755.4945,755.89746,766.3736,795.78754
743.00366,760.7326,757.1062,626.1539
757.1062,777.25275,778.46155,695.4579
780.07324,798.60803,804.65204,888.0586
785.7143,801.02563,801.4286,950.5128
778.0586,786.1172,782.8938,826.8132
767.5824,790.54944,775.64105,655.9707
768.7912,793.36993,780.87915,676.52014
780.4762,780.87915,792.96704,848.5714
790.9524,788.93774,798.60803,940.0366
780.07324,805.05493,787.72894,853.00366
756.30035,774.83514,767.98535,669.67035
749.0476,749.0476,765.9707,644.2857
767.5824,783.2967,791.3553,830.0366
787.72894,795.38464,803.44324,946.08057
777.6557,784.5055,792.1612,864.68866
758.315,777.25275,774.43225,689.41394
754.68866,781.28204,776.4469,656.3736
763.95605,789.34064,795.38464,821.978
778.0586,793.7729,802.6374,936.8132
773.22345,787.72894,791.3553,873.5531
757.9121,796.5934,773.22345,691.4286
750.2564,801.02563,772.01465,613.663
757.50916,775.64105,782.49084,755.4945
775.2381,774.43225,787.72894,888.46155
778.0586,779.2674,783.69965,860.2564
757.9121,772.01465,766.77655,686.5934
753.47986,776.4469,762.3443,589.89014
769.59705,786.52014,784.5055,749.85345
786.9231,796.99634,799.011,911.8315
789.7436,797.8022,793.36993,886.04395
771.2088,783.2967,772.8205,708.7546
761.53845,775.2381,765.16486,588.68134
764.7619,792.96704,786.1172,720.4396
774.0293,811.0989,794.57874,885.2381
779.67035,801.02563,790.9524,893.2967
772.8205,788.1319,781.28204,743.8095
747.8388,765.16486,760.32965,594.7253
749.45056,761.9414,768.7912,685.38464
768.3883,789.7436,792.96704,874.7619
778.46155,799.81683,797.3993,915.05493
761.53845,778.46155,776.04395,765.16486
738.1685,759.5238,762.3443,601.5751
744.21246,770.40295,778.0586,653.1502
771.2088,785.31134,794.17584,840.10986
772.8205,782.8938,788.93774,904.9817
754.2857,795.38464,777.25275,776.4469
746.63007,780.4762,766.3736,608.8278
749.45056,752.674,766.77655,643.47986
763.95605,762.3443,776.4469,819.5604
779.67035,786.52014,786.1172,915.4579
774.83514,781.685,773.6264,817.1429
762.74725,749.0476,752.27106,617.28937
756.30035,758.315,767.98535,626.1539
762.3443,776.04395,788.5348,817.9487
777.6557,786.52014,792.1612,923.1135
765.9707,776.4469,776.8498,838.9011
753.0769,766.77655,763.95605,656.77655
745.0183,787.326,774.83514,624.94507
753.0769,790.14655,791.75824,783.2967
781.28204,775.64105,799.011,897.72894
774.83514,773.6264,786.52014,830.4396
747.8388,769.59705,766.3736,645.4945
747.4359,770.0,763.95605,592.71063
759.92676,772.01465,783.2967,754.68866
772.8205,795.38464,799.41394,894.90845
778.46155,795.38464,792.96704,858.6447
760.7326,770.80585,775.2381,673.69965
743.4066,769.59705,774.0293,583.8461
757.9121,782.49084,789.34064,740.58606
771.6117,809.0842,801.4286,887.25275
780.4762,799.81683,803.0403,868.71796
769.59705,761.13556,782.49084,702.3077
755.4945,759.92676,770.40295,583.0403
767.98535,783.69965,788.5348,719.6337
777.25275,792.96704,801.02563,888.86444
781.685,783.2967,799.011,890.07324
768.3883,778.46155,782.0879,734.5421
744.61536,772.4176,778.86444,696.26373
743.8095,763.1502,765.56775,591.9048
765.56775,800.6227,799.41394,880.80585
772.01465,784.90845,797.3993,916.26373
757.50916,792.96704,780.07324,770.80585
740.989,780.4762,770.40295,616.4835
738.1685,755.89746,782.49084,692.6374
755.89746,778.46155,796.99634,925.9341
749.85345,774.0293,795.78754,876.77655
745.82416,770.0,785.7143,787.72894
737.3626,757.50916,767.98535,620.10986
740.58606,769.59705,784.90845,672.49084
755.89746,800.2198,805.8608,853.00366
766.3736,789.34064,795.38464,911.02563
756.7033,768.7912,776.8498,788.5348
743.8095,761.9414,761.53845,611.6484
746.63007,788.93774,777.6557,630.58606
765.16486,816.7399,800.2198,817.1429
776.4469,782.8938,800.2198,903.36993
771.2088,762.3443,784.90845,805.8608
761.53845,769.59705,774.0293,628.1685
749.0476,769.19415,778.86444,601.1722
755.4945,778.86444,793.36993,778.46155
767.98535,785.31134,803.0403,889.67035
756.7033,771.6117,770.40295,629.7802
749.0476,768.7912,767.98535,572.96704
762.74725,784.90845,788.93774,746.63007
767.1795,784.10254,792.1612,817.9487
772.4176,814.7253,804.2491,880.40295
763.5531,799.011,793.7729,829.2308
744.21246,751.4652,766.3736,637.8388
744.61536,769.19415,770.80585,570.14655
763.5531,783.2967,790.9524,726.8865
766.3736,772.4176,794.17584,852.6007
764.35895,780.87915,788.1319,820.7692
741.79486,778.46155,770.0,646.30035
728.9011,767.98535,766.77655,541.13556
750.2564,777.6557,785.31134,684.17584
770.0,792.5641,800.6227,848.1685
776.4469,791.75824,795.38464,836.8865
763.1502,802.23444,775.64105,678.93774
747.8388,794.17584,774.0293,571.75824
758.71796,768.7912,788.93774,674.90845
775.2381,785.31134,801.8315,839.304
768.3883,790.54944,799.81683,863.0769
752.27106,802.23444,778.86444,566.1172
755.09155,801.4286,784.90845,703.5165
760.32965,790.14655,799.011,825.2015
752.27106,781.685,788.93774,657.5824
761.9414,783.69965,785.7143,736.55676
743.8095,771.6117,771.2088,576.1905
745.0183,796.5934,787.72894,647.9121
761.9414,808.68134,807.8755,840.10986
768.3883,794.57874,799.41394,869.5238
764.35895,779.67035,803.0403,899.7436
758.315,774.83514,784.90845,776.04395
750.2564,773.22345,770.0,613.2601
738.97437,775.64105,776.04395,651.13556
757.1062,789.34064,790.14655,838.49817
779.2674,798.20514,798.20514,935.6044
770.80585,805.05493,793.36993,843.73627
751.4652,784.90845,772.8205,655.9707
747.8388,763.95605,777.6557,654.7619
763.5531,786.1172,796.1905,840.5128
783.69965,817.1429,807.0696,964.21246
786.52014,805.05493,806.26373,893.2967
760.7326,768.7912,781.28204,686.5934
750.65936,759.92676,775.64105,641.06226
768.7912,782.49084,798.60803,835.2747
779.2674,798.20514,807.47253,956.9597
777.6557,792.96704,793.7729,872.74725
767.98535,785.31134,774.43225,696.26373
751.4652,778.86444,770.0,629.3773
765.9707,789.7436,789.7436,802.23444
780.07324,799.011,801.8315,947.28937
773.6264,801.02563,794.57874,910.6227
759.92676,792.5641,775.64105,741.39197
745.0183,774.83514,773.22345,657.98535
752.674,768.3883,791.3553,807.47253
766.77655,776.8498,796.99634,957.76556
768.7912,780.07324,793.7729,945.2747
757.9121,771.2088,777.6557,776.4469
749.0476,764.7619,765.9707,661.2088
755.09155,777.6557,787.326,793.7729
770.40295,786.9231,808.68134,958.1685
772.4176,783.69965,801.02563,969.0476
752.27106,768.7912,776.4469,813.1135
739.7802,757.1062,767.5824,676.52014
753.8828,788.93774,788.5348,792.5641
761.13556,811.50183,802.6374,964.61536
763.95605,777.6557,799.41394,996.04395
761.13556,754.2857,783.69965,843.3333
744.61536,763.5531,766.3736,678.5348
749.0476,774.0293,782.49084,761.53845
769.19415,787.72894,804.65204,943.663
779.67035,788.5348,805.4579,991.2088
768.3883,779.2674,794.17584,862.27106
750.2564,767.98535,777.25275,693.8461
750.2564,767.5824,780.07324,737.76556
777.25275,783.69965,805.05493,924.7253
788.5348,811.9048,814.3223,997.25275
777.6557,799.81683,793.36993,879.19415
767.1795,747.03296,774.83514,693.44324
763.1502,752.27106,784.10254,701.9048
772.8205,788.93774,800.2198,884.0293
781.28204,793.36993,803.44324,970.2564
778.0586,780.87915,794.17584,875.9707
754.68866,770.0,777.25275,692.23444
743.00366,763.1502,774.43225,664.0293
755.09155,777.25275,794.9817,842.1245
763.5531,789.7436,802.6374,947.28937
761.9414,782.49084,786.9231,875.9707
743.8095,787.326,767.1795,686.5934
733.3333,774.43225,762.74725,624.94507
745.0183,755.89746,777.25275,784.90845
763.1502,776.04395,792.1612,918.68134
768.7912,779.2674,788.93774,869.5238
744.21246,770.0,767.5824,671.685
726.4835,774.83514,766.77655,597.9487
743.8095,789.34064,784.5055,757.1062
762.74725,792.5641,792.1612,895.31134
764.7619,784.10254,787.72894,866.7033
752.674,774.43225,774.83514,693.44324
739.7802,770.0,776.04395,583.8461
755.89746,799.81683,797.8022,724.4689
774.43225,802.23444,807.0696,884.83514
774.43225,765.56775,799.41394,869.92676
767.1795,769.59705,780.87915,709.5604
747.4359,766.3736,765.56775,581.8315
755.09155,771.2088,787.72894,697.0696
774.43225,789.34064,809.89014,878.3883
770.80585,785.7143,802.23444,893.2967
759.92676,776.04395,784.5055,732.52747
736.55676,786.9231,772.4176,578.20514
726.08057,791.75824,787.326,655.9707
751.8681,778.86444,806.26373,839.304
765.9707,803.0403,808.2784,882.01465
753.0769,791.3553,783.69965,734.5421
740.58606,756.7033,760.32965,560.4762
748.6447,773.22345,779.2674,623.73627
767.5824,796.5934,798.60803,814.3223
779.67035,791.3553,797.3993,865.09155
769.19415,782.49084,782.0879,732.52747
745.82416,775.64105,763.5531,563.2967
776.4469,808.2784,805.05493,784.10254
778.46155,799.011,803.0403,865.4945
754.2857,788.1319,778.0586,593.5165
770.40295,789.34064,785.31134,754.68866
756.7033,798.60803,772.8205,581.8315
755.09155,794.57874,774.43225,583.8461
766.77655,775.2381,795.78754,760.7326
771.6117,768.7912,804.65204,860.65936
761.9414,771.6117,786.52014,773.6264
749.85345,774.83514,774.83514,599.15753
738.1685,770.40295,779.67035,566.52014
747.03296,782.49084,794.57874,740.58606
771.6117,795.78754,794.9817,815.9341
774.83514,799.011,803.44324,876.77655
751.4652,786.1172,776.04395,624.94507
748.6447,785.31134,778.0586,561.685
759.5238,807.8755,800.6227,736.9597
772.4176,798.20514,806.6667,873.5531
746.63007,774.43225,776.04395,657.1795
742.1978,761.9414,773.6264,570.14655
763.1502,772.01465,790.54944,718.022
774.0293,780.87915,799.81683,876.77655
771.2088,778.0586,796.5934,830.4396
777.6557,785.31134,799.41394,879.59705
769.59705,780.4762,781.685,711.978
753.47986,772.4176,773.6264,589.89014
754.68866,784.10254,790.9524,719.6337
772.4176,793.36993,803.8461,898.5348
776.4469,805.8608,801.02563,904.9817
766.3736,794.57874,782.0879,737.76556
754.2857,762.74725,767.1795,600.3663
759.5238,763.5531,786.9231,706.337
780.07324,782.49084,803.8461,894.90845
784.5055,807.8755,803.44324,934.7985
766.77655,790.14655,789.34064,786.52014
750.65936,755.09155,772.4176,628.1685
760.7326,779.2674,782.0879,711.978
788.5348,797.8022,805.05493,901.3553
799.41394,789.7436,802.6374,950.9158
772.4176,779.2674,778.86444,823.5897
762.3443,800.2198,773.6264,672.8938
780.4762,802.6374,783.69965,711.1722
794.17584,778.46155,792.96704,882.01465
799.41394,794.9817,788.93774,862.674
800.2198,788.93774,797.3993,967.4359
780.07324,782.0879,773.6264,688.20514
772.4176,776.8498,778.0586,703.91943
784.5055,788.5348,798.60803,892.8938
797.8022,788.93774,785.7143,891.685
779.2674,775.2381,768.3883,703.91943
772.4176,776.4469,776.8498,695.05493
795.38464,798.60803,803.44324,885.2381
805.4579,805.8608,808.68134,985.16486
790.14655,763.5531,784.10254,894.5055
778.86444,759.12085,765.9707,711.1722
779.67035,774.83514,774.0293,674.5055
788.1319,786.1172,797.8022,849.7802
806.26373,799.011,813.91943,995.64105
794.57874,803.44324,800.6227,987.98535
807.8755,789.34064,804.2491,939.2308
758.71796,769.19415,778.0586,660.40295
780.4762,792.1612,805.05493,822.381
789.7436,802.6374,815.12823,970.2564
783.2967,799.81683,803.44324,931.5751
771.6117,784.90845,782.8938,757.50916
773.6264,774.83514,779.2674,745.42126
759.92676,747.8388,776.4469,643.8828
767.5824,759.92676,792.5641,772.4176
788.5348,778.46155,803.0403,936.4103
796.5934,788.1319,805.05493,942.0513
780.4762,779.2674,786.52014,763.5531
754.68866,762.74725,772.8205,623.73627
782.0879,788.1319,801.4286,903.7729
779.67035,796.99634,805.4579,937.619
765.9707,783.69965,787.326,787.72894
755.4945,786.9231,778.0586,642.27106
758.71796,789.7436,787.326,720.0366
763.5531,766.3736,793.36993,885.64105
761.13556,770.80585,783.2967,729.707
765.56775,774.0293,790.14655,793.7729
771.2088,772.01465,800.6227,929.5604
745.82416,764.7619,769.19415,622.52747
754.68866,771.2088,780.4762,676.52014
778.0586,789.7436,804.65204,870.32965
786.9231,795.78754,805.05493,939.6337
776.8498,778.0586,784.5055,809.4872
762.3443,762.74725,765.16486,620.5128
760.7326,774.0293,772.4176,646.30035
766.77655,812.71063,799.011,841.31866
772.01465,799.41394,803.0403,921.9048
765.16486,759.12085,787.72894,804.2491
751.06226,760.7326,771.2088,612.4542
749.85345,778.46155,781.685,624.1392
767.5824,783.69965,802.23444,805.05493
777.25275,779.67035,799.81683,898.93774
771.6117,774.0293,787.326,819.15753
753.8828,766.77655,770.0,627.76556
749.45056,770.40295,777.25275,589.89014
761.9414,777.6557,797.8022,766.77655
769.19415,781.685,800.6227,892.0879
773.22345,796.1905,796.1905,837.6923
759.5238,784.10254,778.0586,651.53845
751.8681,752.674,764.7619,573.36993
760.7326,762.74725,785.31134,731.31866
777.25275,782.49084,802.23444,879.19415
786.1172,786.1172,796.1905,846.1539
766.3736,786.52014,779.67035,666.04395
753.47986,773.22345,773.6264,570.54944
772.01465,776.04395,796.1905,856.2271
776.04395,777.25275,791.75824,844.94507
751.8681,761.9414,767.98535,666.8498
732.1245,781.28204,766.77655,550.80585
744.61536,784.90845,783.69965,667.6557
763.1502,772.8205,794.57874,824.7985
755.89746,756.30035,782.49084,701.50183
767.98535,775.64105,787.326,838.9011
757.50916,769.19415,764.35895,680.54944
735.7509,766.3736,755.09155,533.47986
743.4066,775.64105,772.4176,631.39197
766.3736,790.14655,796.5934,821.1722
771.6117,795.38464,799.81683,858.6447
770.0,802.23444,784.90845,720.4396
756.30035,784.90845,771.2088,568.1319
752.674,766.77655,774.0293,622.9304
774.43225,809.4872,797.3993,813.91943
793.7729,813.5165,801.8315,885.2381
784.90845,778.86444,782.8938,747.4359
763.95605,767.1795,770.40295,566.1172
761.9414,774.83514,781.685,608.8278
782.49084,791.75824,801.4286,811.0989
793.7729,791.75824,806.26373,890.4762
787.326,784.5055,792.96704,779.67035
765.56775,773.22345,773.6264,604.3956
763.95605,775.2381,777.6557,616.4835
790.9524,795.78754,803.0403,805.8608
801.4286,799.41394,810.696,903.36993
783.2967,792.96704,795.38464,808.68134
762.3443,794.17584,778.86444,627.3626
756.7033,775.64105,780.87915,603.1868
765.56775,762.74725,799.81683,774.43225
779.67035,781.685,811.50183,892.0879
775.64105,788.93774,801.02563,829.2308
755.09155,773.6264,778.0586,635.82416
749.45056,769.59705,773.6264,579.41394
764.35895,782.0879,790.14655,755.09155
777.25275,789.34064,791.3553,852.1978
760.32965,773.6264,771.6117,661.2088
775.64105,789.34064,796.99634,893.69965
751.06226,790.54944,772.8205,581.8315
773.6264,801.02563,794.17584,737.3626
781.28204,790.54944,794.57874,882.8205
774.0293,788.1319,786.1172,869.5238
764.7619,770.40295,769.59705,699.89014
749.0476,769.59705,765.16486,581.02563
757.9121,781.28204,786.52014,719.6337
779.67035,793.7729,802.6374,901.75824
780.87915,785.7143,793.7729,904.57874
761.9414,771.2088,776.4469,734.1392
741.79486,767.1795,768.3883,604.7985
744.61536,765.9707,781.28204,719.6337
755.4945,795.38464,800.6227,894.5055
759.12085,793.36993,797.3993,923.91943
752.674,753.0769,780.07324,776.04395
737.76556,754.68866,778.86444,629.3773
747.03296,771.6117,793.7729,708.7546
772.01465,792.5641,809.0842,898.5348
775.64105,782.49084,804.65204,948.0952
752.27106,763.1502,782.49084,796.5934
730.9158,757.1062,767.5824,620.10986
739.7802,764.7619,784.5055,683.36993
767.1795,788.1319,814.3223,888.0586
778.46155,793.36993,815.5311,961.39197
768.7912,803.8461,798.60803,842.1245
751.8681,784.10254,779.2674,654.35895
743.4066,763.1502,780.4762,660.40295
763.5531,784.10254,801.02563,853.00366
777.6557,790.9524,803.0403,945.6777
770.40295,791.75824,788.93774,840.9158
762.3443,778.86444,776.4469,658.7912
758.71796,782.49084,779.67035,653.5531
791.75824,790.14655,802.23444,967.03296
782.49084,783.2967,797.8022,892.0879
755.09155,773.22345,780.4762,696.26373
741.39197,786.52014,779.2674,660.0
747.8388,787.326,794.57874,835.6777
755.09155,767.5824,801.02563,958.1685
757.50916,771.6117,790.14655,906.1905
749.0476,767.98535,774.0293,718.022
743.8095,767.98535,777.25275,649.5238
773.6264,801.4286,795.78754,845.34796
755.89746,779.2674,794.9817,810.293
761.13556,789.34064,803.8461,940.84247
766.77655,786.1172,796.5934,906.99634
759.12085,761.9414,768.3883,715.2015
745.0183,769.19415,762.3443,610.0366
757.50916,790.9524,791.3553,767.1795
778.46155,807.47253,800.2198,926.337
776.04395,798.60803,789.7436,914.2491
761.53845,765.16486,772.4176,739.7802
754.2857,764.7619,768.3883,613.2601
756.7033,776.4469,788.5348,727.28937
767.98535,787.326,799.41394,900.14655
775.64105,790.14655,794.9817,922.3077
761.53845,779.67035,779.2674,758.315
743.8095,776.4469,767.98535,599.9634
756.30035,789.7436,780.87915,690.2198
785.31134,803.44324,801.02563,878.7912
790.9524,798.60803,800.2198,923.1135
772.4176,795.38464,784.5055,775.64105
742.1978,787.72894,771.2088,607.2161
742.6007,767.98535,780.4762,670.87915
763.1502,758.315,790.14655,847.76556
771.6117,774.83514,791.3553,911.8315
749.0476,773.22345,770.40295,602.7839
765.9707,783.2967,784.10254,786.9231
754.2857,778.0586,781.28204,628.1685
773.22345,787.72894,797.8022,817.5458
779.2674,788.93774,798.60803,907.3993
772.01465,784.10254,784.5055,798.20514
742.6007,788.1319,773.6264,622.9304
753.0769,769.59705,763.5531,616.8865
760.32965,792.1612,790.54944,801.8315
766.77655,763.1502,790.14655,897.326
757.1062,780.07324,786.52014,816.7399
738.5714,776.8498,770.80585,636.63007
753.8828,777.6557,795.38464,780.4762
732.1245,755.89746,770.0,598.7546
766.77655,784.5055,802.23444,904.57874
761.53845,778.0586,790.54944,837.28937
755.89746,774.83514,776.04395,652.3443
750.65936,772.8205,776.4469,596.337
756.30035,779.67035,790.9524,757.50916
776.04395,804.2491,807.0696,894.90845
779.67035,795.38464,802.6374,861.8681
759.12085,758.71796,776.04395,665.64105
745.0183,759.12085,774.83514,579.41394
752.674,781.685,793.7729,732.9304
771.6117,790.9524,803.0403,884.83514
776.04395,799.81683,799.41394,878.7912
753.47986,779.2674,781.685,706.337
731.31866,751.8681,767.5824,580.6227
763.1502,772.4176,807.0696,886.04395
772.8205,776.04395,805.05493,899.34064
759.92676,789.7436,788.1319,739.7802
742.6007,774.83514,775.64105,589.0842
736.9597,759.5238,788.5348,702.3077
752.674,769.19415,801.02563,883.6264
737.76556,764.35895,785.7143,711.1722
766.77655,780.07324,804.2491,920.293
756.7033,770.40295,792.5641,772.8205
749.85345,767.98535,785.31134,614.0659
765.16486,793.7729,809.0842,711.1722
796.5934,815.5311,831.2454,900.14655
810.696,834.0659,833.2601,961.79486
788.1319,808.68134,807.47253,813.5165
764.35895,786.1172,784.90845,627.76556
772.4176,824.7985,802.6374,693.44324
799.41394,831.2454,821.5751,884.0293
803.0403,805.8608,816.7399,954.5421
786.1172,793.36993,800.2198,829.2308
768.3883,782.0879,787.72894,642.27106
765.9707,784.5055,798.20514,664.43225
783.2967,798.60803,815.5311,849.7802
794.17584,805.05493,814.3223,946.08057
773.6264,791.75824,789.34064,645.4945
784.5055,804.2491,810.293,833.663
786.9231,819.5604,813.5165,954.1392
766.3736,798.20514,795.78754,867.9121
753.47986,765.9707,779.2674,682.96704
744.21246,763.5531,783.2967,634.61536
756.30035,779.2674,795.38464,793.7729
773.22345,786.1172,803.44324,925.5311
785.31134,793.7729,796.99634,849.7802
778.0586,788.1319,781.28204,663.22345
777.25275,779.67035,791.3553,868.71796
758.71796,776.04395,775.64105,685.38464
760.32965,786.1172,792.96704,773.22345
774.43225,794.57874,803.8461,914.2491
772.01465,794.17584,797.8022,881.2088
753.8828,802.6374,778.46155,703.5165
741.79486,782.0879,772.01465,598.3516
756.30035,772.8205,788.1319,730.9158
769.59705,791.75824,799.81683,892.0879
771.6117,780.4762,794.57874,886.04395
757.9121,776.8498,778.86444,713.9927
736.55676,771.2088,768.7912,581.8315
740.989,773.6264,778.0586,614.4689
745.0183,785.7143,787.72894,698.2784
763.95605,793.7729,801.8315,877.5824
763.5531,787.326,792.96704,892.8938
754.68866,778.86444,775.64105,731.7216
741.39197,773.6264,771.2088,590.293
739.7802,801.4286,788.5348,684.57874
755.4945,799.011,797.8022,854.21246
760.7326,771.2088,791.75824,885.2381
748.24176,767.1795,775.64105,740.58606
735.34796,765.16486,765.9707,582.23444
747.4359,782.0879,776.4469,649.5238
765.16486,791.3553,791.3553,834.0659
763.1502,784.10254,794.57874,899.34064
753.47986,778.46155,777.25275,770.80585
743.4066,770.0,765.56775,591.0989
747.03296,775.64105,779.67035,626.9597
765.56775,785.7143,794.17584,815.12823
770.80585,805.05493,801.02563,913.0403
761.53845,802.6374,791.75824,810.293
744.61536,770.80585,763.1502,613.2601
747.8388,774.43225,782.0879,792.5641
766.77655,790.9524,792.1612,909.41394
728.0952,759.92676,758.71796,601.1722
759.5238,783.69965,775.64105,820.3663
744.61536,788.1319,758.71796,633.00366
767.5824,790.9524,794.17584,783.2967
745.0183,794.9817,768.7912,608.4249
779.2674,784.10254,800.6227,912.6374
757.9121,793.36993,774.43225,671.685
736.1539,774.83514,773.22345,612.4542
735.7509,753.8828,782.49084,762.74725
758.71796,774.43225,798.20514,908.60803
774.0293,778.46155,786.52014,850.18317
760.7326,779.2674,789.7436,881.6117
738.97437,761.9414,765.9707,694.2491
730.10986,756.7033,762.74725,591.50183
745.82416,771.2088,782.8938,738.5714
768.7912,784.10254,802.23444,906.1905
783.2967,779.67035,796.99634,896.1172
776.8498,779.2674,780.4762,728.49817
770.80585,796.1905,793.36993,740.18317
786.9231,801.02563,809.4872,911.4286
786.9231,765.16486,798.20514,911.4286
775.64105,767.5824,787.72894,751.06226
755.09155,765.56775,776.4469,610.84247
752.27106,773.6264,777.25275,695.8608
765.56775,791.75824,796.99634,871.53845
757.1062,769.59705,774.43225,614.0659
776.04395,790.14655,801.8315,909.41394
764.7619,776.04395,782.8938,759.12085
755.09155,777.6557,776.8498,607.619
755.09155,782.49084,793.36993,682.1612
759.12085,785.31134,802.23444,857.8388
767.5824,807.8755,802.6374,917.47253
763.5531,813.5165,796.99634,794.9817
742.6007,765.16486,782.49084,612.4542
735.34796,756.30035,785.7143,645.89746
765.56775,794.57874,808.2784,840.10986
779.2674,800.6227,809.4872,925.12823
761.9414,791.75824,792.1612,817.5458
746.2271,786.1172,776.8498,631.79486
740.18317,787.72894,791.3553,639.85345
751.8681,798.60803,813.5165,828.4249
757.1062,801.8315,811.50183,919.0842
745.0183,795.38464,798.60803,823.9927
747.4359,802.23444,782.8938,656.3736
744.21246,798.60803,782.8938,630.58606
743.4066,774.43225,792.5641,782.49084
772.4176,788.1319,805.4579,910.6227
773.22345,794.57874,796.1905,840.9158
740.989,763.1502,768.3883,632.6007
740.989,767.5824,776.04395,590.696
760.32965,789.34064,799.81683,764.7619
768.7912,790.9524,805.8608,877.98535
767.1795,785.31134,792.96704,823.1868
751.4652,780.4762,777.25275,651.9414
749.0476,777.25275,779.67035,575.38464
755.09155,797.3993,792.96704,716.4103
761.13556,797.8022,799.81683,859.45056
770.80585,777.25275,792.5641,832.8571
763.95605,779.67035,779.2674,664.0293
753.0769,779.67035,776.4469,570.14655
764.35895,791.3553,797.8022,703.5165
779.2674,811.50183,812.3077,859.45056
780.07324,807.47253,800.2198,863.0769
758.71796,783.69965,774.0293,697.8755
743.00366,770.0,765.56775,566.9231
759.12085,784.10254,788.5348,676.9231
778.86444,795.78754,800.2198,842.1245
778.86444,810.696,792.1612,866.7033
763.5531,790.9524,771.6117,714.3956
759.5238,759.5238,765.56775,571.75824
769.19415,784.10254,786.52014,649.92676
779.2674,794.57874,794.57874,815.12823
791.75824,791.3553,795.38464,862.27106
781.685,792.96704,781.685,736.55676
759.12085,784.5055,766.3736,589.4872
757.50916,784.10254,776.8498,626.1539
774.83514,809.89014,793.7729,780.87915
778.46155,798.20514,789.34064,842.52747
764.7619,784.90845,776.4469,728.0952
753.8828,807.47253,775.64105,570.54944
749.45056,786.52014,779.2674,594.3223
759.5238,774.83514,790.9524,750.2564
777.6557,792.1612,797.3993,830.84247
777.6557,781.685,784.5055,736.55676
748.24176,770.80585,766.77655,564.5055
735.34796,777.25275,771.6117,556.4469
759.12085,793.7729,794.17584,716.4103
766.3736,789.34064,782.8938,747.8388
747.03296,769.59705,765.16486,566.9231
741.79486,778.46155,767.98535,534.2857
772.01465,811.50183,798.60803,709.9634
782.49084,794.17584,801.4286,823.1868
772.4176,760.32965,786.9231,762.74725
758.71796,755.09155,772.01465,593.91943
771.2088,794.9817,795.38464,820.3663
743.4066,762.3443,772.4176,524.61536
754.68866,778.46155,791.3553,677.72894
771.2088,788.93774,799.011,819.5604
776.04395,786.1172,793.36993,794.9817
751.06226,780.4762,771.2088,539.5238
767.5824,789.7436,793.36993,672.0879
779.2674,796.5934,800.2198,832.0513
785.31134,811.9048,802.23444,846.1539
766.77655,793.36993,788.1319,681.3553
746.2271,770.40295,775.2381,558.0586
759.92676,782.8938,771.2088,628.97437
751.06226,765.56775,781.685,655.56775
761.13556,771.2088,788.93774,814.7253
775.64105,792.1612,794.9817,857.03296
778.0586,789.34064,786.1172,726.8865
752.27106,770.0,774.0293,599.5604
751.8681,777.25275,785.7143,682.5641
774.83514,797.8022,801.8315,839.707
784.5055,789.7436,799.81683,882.8205
770.40295,771.2088,777.25275,754.2857
754.2857,788.1319,772.4176,629.7802
772.4176,802.23444,796.5934,709.9634
787.326,781.28204,805.8608,856.2271
786.1172,777.25275,799.81683,895.7143
773.22345,783.2967,785.7143,786.52014
749.85345,782.8938,770.40295,638.6447
742.1978,776.4469,776.8498,668.86444
759.12085,786.9231,792.5641,837.6923
779.67035,794.9817,793.7729,915.05493
773.22345,786.52014,786.52014,821.1722
746.63007,781.685,774.83514,675.7143
743.8095,784.90845,776.04395,684.17584
764.7619,810.696,792.5641,842.9304
779.2674,801.02563,798.20514,933.1868
769.59705,759.5238,783.2967,843.73627
743.4066,761.9414,769.59705,687.3993
743.4066,768.3883,771.2088,680.14655
756.7033,782.0879,788.93774,839.304
768.7912,792.1612,796.99634,942.4542
776.04395,800.2198,788.1319,885.64105
753.8828,767.98535,774.0293,689.81683
767.98535,780.87915,786.9231,828.4249
783.2967,784.5055,797.3993,939.6337
782.8938,805.05493,793.7729,906.1905
762.74725,801.4286,782.0879,753.47986
748.6447,757.1062,776.8498,676.52014
760.7326,773.22345,791.3553,796.5934
779.67035,791.3553,802.6374,920.293
780.4762,784.10254,794.9817,902.96704
759.92676,774.83514,779.67035,745.42126
759.5238,789.7436,775.64105,734.1392
742.6007,776.4469,776.04395,653.1502
756.30035,788.1319,792.5641,758.71796
771.2088,795.78754,803.0403,889.2674
777.25275,811.50183,797.3993,890.4762
761.53845,790.14655,780.07324,745.0183
750.65936,782.49084,772.01465,639.45056
760.32965,796.1905,783.69965,735.7509
770.40295,776.8498,792.96704,870.7326
779.67035,777.25275,792.96704,890.4762
764.7619,776.8498,781.685,764.7619
745.82416,770.0,772.8205,640.2564
747.8388,777.25275,782.0879,709.5604
764.7619,788.1319,793.7729,855.82416
764.7619,784.5055,788.93774,787.326
743.00366,774.0293,775.64105,633.8095
740.18317,776.8498,782.49084,678.93774
768.7912,805.8608,811.0989,840.9158
782.8938,809.89014,812.71063,904.9817
763.1502,767.5824,780.4762,779.67035
742.6007,751.4652,763.5531,617.6923
747.8388,767.5824,777.25275,643.0769
767.1795,790.14655,793.7729,791.3553
781.685,800.6227,801.8315,862.674
772.01465,792.5641,796.5934,906.5934
769.59705,787.72894,791.3553,775.64105
749.0476,773.6264,776.4469,611.2454
746.2271,779.67035,778.86444,592.71063
760.32965,788.93774,791.3553,752.674
781.28204,819.9634,795.78754,784.5055
764.7619,792.5641,778.0586,608.4249
755.09155,761.53845,778.0586,554.43225
767.5824,794.57874,799.011,700.293
779.2674,798.20514,796.1905,801.02563
784.10254,784.90845,784.10254,738.5714
774.0293,786.9231,776.8498,574.17584
776.4469,797.3993,800.6227,856.2271
762.74725,774.0293,773.22345,516.9597
789.7436,802.23444,804.65204,778.46155
789.34064,793.7729,795.38464,750.65936
774.0293,785.31134,790.9524,658.7912
756.30035,794.57874,772.4176,493.1868
768.7912,800.2198,790.54944,619.707
785.7143,797.3993,796.5934,761.53845
771.2088,781.685,770.80585,580.6227
786.9231,797.8022,797.8022,761.53845
763.1502,783.69965,784.10254,610.84247
748.6447,782.8938,779.2674,498.4249
769.19415,805.4579,795.38464,617.28937
780.87915,808.2784,805.05493,780.07324
772.4176,793.7729,787.72894,669.2674
780.4762,795.78754,799.011,803.0403
751.4652,786.1172,783.69965,559.2674
756.7033,791.75824,792.1612,663.6264
779.67035,819.15753,803.0403,834.0659
783.2967,819.5604,800.2198,887.6557
767.1795,785.31134,783.2967,759.5238
754.2857,774.43225,783.2967,626.55676
758.315,785.31134,792.96704,696.6667
778.0586,803.0403,797.8022,947.6923
774.0293,810.293,800.2198,876.3736
770.40295,778.86444,784.90845,836.8865
753.0769,802.23444,777.6557,695.8608
751.8681,802.23444,781.28204,734.5421
773.6264,786.9231,793.36993,900.54944
784.10254,793.7729,799.41394,994.43225
773.22345,815.5311,797.3993,910.2198
752.674,801.02563,782.49084,749.0476
750.2564,771.2088,775.64105,752.674
765.56775,787.72894,790.54944,923.5165
784.10254,800.6227,801.02563,1035.5311
778.0586,795.78754,792.1612,965.82416
752.674,788.5348,776.04395,803.0403
750.65936,786.1172,778.46155,800.6227
776.04395,799.41394,796.99634,980.7326
795.38464,809.4872,806.6667,1099.597
788.1319,799.81683,801.02563,1046.8132
765.9707,792.5641,783.2967,876.77655
756.7033,799.41394,785.31134,836.4835
774.0293,790.54944,796.99634,995.2381
793.36993,772.8205,796.99634,1121.7583
786.1172,782.8938,795.78754,1087.1062
768.7912,785.7143,784.10254,913.8461
771.2088,784.90845,778.0586,844.5421
781.28204,793.36993,790.54944,990.40295
792.96704,804.2491,801.02563,1137.4725
777.25275,790.14655,781.685,969.85345
758.315,779.2674,773.6264,846.1539
767.5824,782.8938,785.7143,976.7033
784.5055,813.1135,802.23444,1170.1099
796.1905,803.44324,795.38464,1139.8901
790.9524,803.44324,803.44324,1191.8682
755.4945,761.13556,772.01465,873.95605
776.8498,770.40295,784.5055,1013.7729
762.3443,768.3883,784.5055,977.9121
791.75824,790.14655,809.0842,1168.4982
790.14655,789.34064,805.4579,1203.1501
763.95605,774.0293,784.10254,1039.1575
757.50916,767.98535,782.0879,880.0
763.5531,782.49084,793.7729,965.0183
776.8498,791.75824,806.26373,1154.3956
790.54944,792.96704,808.68134,1213.2234
775.64105,801.8315,790.9524,1066.1538
762.74725,761.13556,791.75824,926.7399
753.8828,775.64105,778.46155,882.4176
776.4469,780.87915,801.8315,1111.6849
777.6557,799.011,801.02563,1203.1501
773.22345,791.75824,794.9817,1094.762
759.5238,757.9121,779.67035,896.52014
753.0769,765.16486,777.25275,899.7436
775.64105,788.1319,792.96704,1091.9414
780.4762,791.75824,798.60803,1210.8059
764.7619,785.31134,788.5348,1108.0586
756.7033,776.8498,776.4469,902.1612
746.63007,787.326,777.25275,876.77655
762.74725,794.57874,799.41394,1070.586
786.9231,784.5055,807.8755,1208.7913
782.0879,782.8938,797.8022,1133.8462
761.53845,771.6117,781.685,929.9634
745.0183,759.12085,776.04395,863.8828
757.9121,770.40295,792.1612,1039.9634
782.8938,801.02563,807.8755,1198.3151
774.43225,785.31134,794.9817,1139.0842
756.30035,754.2857,770.40295,927.1429
751.06226,767.98535,773.22345,844.5421
759.5238,787.326,799.81683,1014.9817
787.326,808.2784,815.5311,1191.4652
781.685,794.57874,803.8461,1163.663
759.92676,763.95605,787.326,952.52747
743.4066,759.92676,779.67035,828.4249
747.03296,771.2088,792.5641,965.0183
767.98535,789.34064,802.23444,1142.7106
775.64105,792.1612,795.38464,1138.2784
756.30035,777.25275,779.2674,927.1429
743.4066,776.8498,772.8205,779.67035
755.89746,784.10254,784.5055,887.6557
769.59705,797.8022,799.81683,1049.6337
774.43225,786.52014,794.9817,1045.2014
762.3443,782.0879,779.2674,846.55676
746.63007,772.8205,770.0,669.67035
757.1062,761.9414,783.2967,748.6447
782.0879,776.8498,796.1905,947.6923
784.90845,778.86444,789.7436,982.74725
772.01465,775.64105,782.8938,796.1905
749.85345,763.5531,771.6117,594.7253
748.24176,760.32965,772.8205,644.68866
765.16486,775.64105,786.1172,836.4835
770.40295,779.2674,794.17584,896.52014
760.32965,772.4176,784.5055,732.52747
745.42126,772.4176,773.22345,529.45056
740.58606,782.49084,777.25275,548.7912
749.0476,799.011,793.7729,743.8095
761.9414,786.9231,794.9817,833.2601
755.4945,767.1795,782.8938,693.44324
730.10986,763.95605,770.40295,474.652
723.663,772.01465,782.0879,466.1905
740.18317,783.2967,800.6227,665.64105
762.3443,791.75824,803.8461,790.54944
767.1795,795.38464,793.36993,695.4579
740.989,784.5055,773.6264,473.04028
724.87177,779.67035,774.43225,418.24176
745.42126,780.4762,797.8022,615.6777
770.80585,808.2784,812.3077,772.8205
762.74725,803.0403,799.81683,692.6374
734.1392,761.13556,775.64105,464.9817
726.08057,770.0,772.8205,395.27472
747.4359,771.6117,789.7436,583.44324
769.59705,784.10254,801.02563,755.89746
769.59705,799.41394,804.2491,731.7216
747.03296,779.2674,788.93774,516.9597
756.7033,786.52014,790.9524,578.20514
770.80585,786.52014,800.2198,756.30035
767.98535,788.1319,793.36993,743.8095
753.47986,796.1905,786.52014,554.83514
736.1539,783.2967,777.6557,413.8095
740.989,770.40295,784.90845,551.6117
762.74725,788.1319,801.02563,770.80585
767.1795,788.1319,799.011,794.17584
748.24176,779.2674,781.28204,583.0403
730.5128,782.49084,778.0586,415.42123
734.94507,774.83514,774.0293,397.69232
734.1392,773.6264,788.93774,536.7033
757.50916,791.3553,805.4579,762.74725
765.56775,797.3993,808.2784,816.337
741.39197,782.8938,791.3553,630.58606
722.8571,780.87915,781.28204,450.87912
747.03296,813.1135,794.57874,558.0586
773.22345,815.5311,808.68134,785.7143
770.80585,783.69965,805.8608,863.0769
754.68866,782.49084,785.7143,696.26373
747.03296,778.0586,772.4176,506.88644
756.30035,776.8498,783.69965,574.17584
774.83514,795.38464,799.81683,802.23444
791.75824,798.60803,806.6667,918.68134
760.7326,789.7436,771.6117,566.1172
784.5055,798.60803,790.9524,785.31134
757.9121,761.53845,776.04395,576.5934
773.22345,772.8205,792.5641,801.4286
786.52014,808.2784,801.8315,937.619
755.89746,755.09155,775.64105,591.50183
784.5055,790.54944,790.14655,819.9634
740.989,761.13556,784.5055,570.54944
756.7033,772.01465,795.38464,780.4762
768.3883,780.07324,799.011,923.1135
767.98535,778.46155,788.5348,828.8278
754.2857,774.83514,774.83514,618.9011
746.63007,778.46155,777.25275,570.9524
767.1795,790.9524,794.17584,761.9414
781.685,791.3553,805.05493,928.7546
777.25275,795.78754,796.5934,868.315
777.6557,806.26373,779.67035,649.5238
765.16486,771.6117,774.0293,547.1795
763.1502,759.92676,794.17584,720.4396
788.5348,790.9524,811.50183,918.68134
805.4579,794.17584,805.05493,897.326
782.49084,776.8498,783.69965,676.1172
759.5238,776.8498,779.67035,549.59705
788.93774,796.5934,800.6227,910.6227
795.38464,802.6374,797.8022,915.05493
770.80585,786.9231,776.04395,693.0403
770.40295,785.7143,792.5641,710.7692
753.8828,776.4469,768.7912,543.1502
780.87915,809.4872,802.6374,898.93774
784.10254,788.93774,796.5934,918.68134
769.19415,803.8461,791.75824,701.50183
773.6264,771.6117,780.87915,727.28937
761.13556,774.43225,785.7143,645.89746
788.93774,793.7729,804.2491,883.22345
757.50916,760.32965,769.19415,539.5238
793.36993,795.78754,808.68134,949.304
769.19415,781.685,792.1612,776.4469
753.47986,771.2088,778.46155,583.0403
776.4469,792.96704,810.696,892.49084
756.7033,774.83514,791.3553,657.1795
786.52014,814.7253,814.7253,984.35895
774.83514,790.14655,794.17584,813.5165
765.9707,756.30035,779.2674,597.5458
792.5641,803.44324,812.3077,855.82416
809.89014,806.26373,816.337,989.59705
798.20514,789.34064,797.3993,838.9011
775.2381,771.2088,792.1612,633.00366
764.35895,775.64105,772.8205,587.8755
763.1502,770.80585,771.2088,591.9048
790.14655,791.3553,790.54944,811.50183
799.81683,801.02563,795.78754,948.9011
785.7143,792.96704,780.87915,842.9304
768.3883,804.2491,773.22345,625.34796
763.95605,787.72894,779.2674,578.60803
774.83514,775.2381,794.17584,775.64105
792.5641,790.54944,803.44324,941.6484
792.5641,786.52014,792.96704,869.92676
775.2381,781.685,776.8498,628.1685
765.16486,796.99634,784.10254,558.46155
778.46155,813.91943,803.0403,762.74725
792.5641,795.78754,803.44324,928.7546
782.8938,790.14655,796.5934,884.0293
758.315,781.685,778.0586,655.56775
745.82416,774.83514,774.43225,555.2381
767.98535,800.6227,794.17584,744.21246
774.0293,798.20514,803.0403,932.381
769.19415,780.4762,801.4286,928.7546
763.95605,779.2674,788.5348,718.4249
749.45056,774.0293,782.8938,574.57874
761.53845,779.67035,797.3993,742.6007
781.685,788.1319,805.4579,946.4835
789.34064,794.17584,804.65204,965.42126
764.35895,792.5641,786.1172,595.9341
770.40295,794.9817,799.011,723.2601
789.7436,782.0879,806.6667,936.0073
781.28204,788.1319,792.5641,766.77655
798.20514,808.68134,809.0842,983.5531
790.54944,802.23444,794.17584,793.7729
762.3443,764.35895,774.43225,599.9634
762.3443,779.67035,786.9231,690.6227
793.7729,805.4579,808.2784,918.68134
793.7729,796.1905,798.20514,987.98535
777.6557,780.87915,780.4762,804.2491
762.74725,775.2381,772.01465,596.337
782.0879,793.7729,801.8315,886.4469
763.1502,787.326,785.31134,653.5531
785.31134,792.96704,798.20514,991.6117
778.46155,790.9524,782.49084,835.2747
758.315,796.5934,770.80585,626.1539
747.03296,802.6374,782.49084,650.7326
775.64105,783.69965,801.8315,862.27106
792.96704,781.28204,808.2784,997.25275
781.685,784.90845,796.5934,884.83514
763.5531,776.04395,777.25275,650.32965
753.8828,776.8498,781.28204,623.73627
762.3443,786.1172,799.41394,840.9158
784.5055,792.5641,800.2198,922.3077
761.13556,779.2674,776.04395,670.87915
755.09155,779.67035,777.25275,586.26373
775.2381,808.2784,803.0403,831.6484
790.9524,811.0989,811.0989,1049.6337
788.5348,784.90845,801.02563,987.5824
769.19415,776.4469,783.2967,704.7253
747.03296,760.32965,773.6264,549.59705
767.5824,769.59705,791.3553,763.1502
786.52014,790.9524,813.91943,1015.38464
782.49084,795.38464,809.4872,1000.4762
773.6264,792.5641,804.2491,989.59705
753.0769,780.4762,777.25275,696.6667
734.94507,777.6557,773.6264,510.51282
745.82416,795.78754,794.57874,703.5165
765.16486,807.0696,811.50183,965.82416
774.83514,829.2308,814.3223,994.83514
760.7326,813.5165,790.54944,746.2271
740.18317,780.07324,774.43225,515.34796
747.4359,802.6374,790.9524,655.56775
765.16486,816.337,806.6667,944.4689
776.4469,823.9927,821.1722,1032.7106
762.3443,803.44324,805.8608,788.93774
740.58606,772.01465,780.07324,523.4066
739.7802,779.67035,792.5641,636.2271
753.8828,799.011,815.12823,922.3077
763.1502,807.0696,811.0989,1031.5018
760.7326,802.23444,788.5348,810.293
752.27106,808.2784,781.28204,525.82416
769.19415,792.5641,802.6374,892.49084
792.5641,805.4579,814.3223,1040.7693
782.8938,801.02563,799.41394,855.42126
748.24176,787.326,779.2674,550.0
750.2564,798.60803,787.72894,595.12823
735.34796,778.86444,779.67035,555.2381
749.85345,787.326,792.1612,841.7216
766.77655,786.52014,798.20514,861.06226
740.58606,751.4652,763.1502,546.3736
738.1685,761.9414,767.98535,517.3626
767.5824,801.02563,804.65204,824.3956
790.54944,805.05493,821.978,1042.381
784.10254,785.31134,804.65204,917.0696
754.2857,761.9414,772.8205,601.978
739.7802,752.674,769.59705,513.73627
759.92676,775.2381,794.9817,786.9231
782.8938,789.7436,808.2784,1022.6374
766.77655,804.65204,809.0842,1017.3993
784.5055,778.0586,796.99634,940.84247
743.8095,764.7619,771.6117,505.27472
761.13556,768.3883,772.4176,635.82416
772.8205,781.685,799.011,761.13556
785.31134,796.99634,810.293,1022.23444
776.8498,793.36993,801.02563,981.53845
761.9414,768.3883,774.43225,680.14655
744.21246,740.58606,760.32965,498.4249
762.74725,759.12085,784.90845,723.2601
797.3993,781.28204,803.44324,1002.49084
786.9231,778.46155,805.4579,1000.87915
782.8938,767.5824,773.6264,707.1429
763.95605,758.315,764.7619,485.93405
788.5348,782.8938,792.5641,961.79486
788.1319,792.5641,798.20514,1018.20514
771.2088,763.5531,785.31134,670.07324
764.35895,769.19415,776.8498,736.55676
778.46155,791.75824,792.96704,660.40295
766.77655,774.43225,768.7912,499.23077
789.7436,780.87915,805.8608,952.1245
776.4469,768.7912,776.8498,790.9524
755.89746,764.7619,763.1502,516.9597
792.5641,773.22345,799.81683,1031.5018
748.6447,778.46155,777.6557,612.0513
762.74725,787.72894,797.3993,913.8461
774.0293,786.9231,809.4872,1034.3224
761.9414,775.2381,785.7143,817.5458
738.97437,765.16486,759.12085,525.42126
735.34796,767.98535,776.4469,571.75824
757.50916,796.1905,805.4579,869.92676
779.67035,807.47253,813.1135,1045.2014
783.2967,774.83514,796.1905,869.92676
760.7326,758.71796,770.0,552.01465
753.47986,778.0586,771.6117,550.40295
785.31134,788.93774,798.60803,848.5714
802.6374,782.49084,805.05493,1032.7106
797.8022,790.54944,794.17584,900.14655
774.83514,774.43225,767.5824,589.89014
756.30035,767.98535,763.1502,525.42126
782.0879,789.34064,786.9231,809.4872
796.1905,805.4579,791.75824,925.12823
777.6557,783.69965,770.40295,616.08057
796.99634,800.6227,801.02563,1029.8901
752.674,753.47986,765.56775,504.06595
768.7912,772.4176,789.34064,763.1502
787.326,787.72894,804.2491,998.46155
792.5641,786.52014,792.96704,937.619
769.19415,778.0586,767.5824,634.61536
746.63007,780.4762,760.32965,481.0989
764.7619,786.52014,787.326,722.4542
786.9231,788.93774,801.4286,981.9414
795.78754,793.36993,795.38464,964.61536
775.2381,771.2088,768.3883,669.2674
751.8681,777.6557,759.12085,477.87546
761.13556,785.31134,787.72894,693.44324
780.87915,776.04395,808.68134,974.2857
792.96704,781.685,806.26373,993.22345
774.83514,761.9414,782.0879,712.7839
743.4066,757.50916,767.5824,483.11356
757.1062,773.22345,782.0879,648.71796
788.1319,788.1319,806.6667,940.84247
761.13556,781.28204,786.1172,748.6447
744.21246,771.6117,766.77655,495.6044
754.2857,759.12085,776.4469,619.707
775.2381,792.1612,804.65204,911.8315
780.87915,797.8022,801.02563,1010.54944
762.3443,756.30035,775.64105,781.28204
741.39197,749.0476,760.7326,499.23077
737.3626,758.71796,768.3883,571.75824
760.32965,778.0586,794.17584,873.5531
777.6557,790.9524,799.81683,1020.6227
784.5055,782.0879,807.0696,1004.90845
769.59705,784.5055,780.07324,830.84247
745.42126,773.6264,761.13556,520.18317
766.3736,793.7729,800.6227,849.7802
786.52014,801.02563,808.68134,1021.02563
773.22345,810.293,796.5934,863.0769
751.06226,807.0696,774.0293,570.54944
741.79486,786.1172,767.5824,524.21246
757.1062,785.31134,788.93774,799.81683
738.5714,776.04395,772.4176,536.30035
776.8498,792.96704,802.6374,1021.4286
765.56775,787.326,794.9817,907.3993
732.1245,772.8205,771.2088,581.8315
718.8278,774.43225,765.9707,495.6044
746.2271,791.3553,794.9817,772.01465
770.0,801.8315,809.4872,1002.49084
759.92676,790.14655,787.326,923.1135
747.03296,783.2967,773.22345,626.9597
744.21246,807.47253,784.5055,511.3187
759.5238,799.41394,797.3993,753.8828
783.69965,804.2491,809.0842,994.0293
783.69965,806.6667,799.41394,964.21246
761.9414,771.6117,771.2088,664.0293
748.6447,774.83514,773.6264,480.69598
755.09155,789.34064,795.78754,705.9341
776.4469,805.8608,805.05493,982.3443
731.31866,786.52014,768.7912,475.4579
734.1392,785.31134,786.52014,656.77655
760.7326,817.1429,812.71063,956.55676
765.56775,828.022,813.91943,995.2381
734.1392,790.9524,786.1172,706.337
754.68866,791.3553,781.28204,694.2491
719.6337,770.0,769.59705,464.9817
782.0879,804.65204,801.02563,984.35895
725.6777,782.49084,788.93774,606.0073
751.4652,818.7546,813.5165,902.5641
762.74725,826.4103,818.3516,994.43225
730.10986,794.57874,792.96704,751.4652
751.8681,807.0696,812.3077,873.1502
768.7912,807.8755,818.3516,998.46155
755.89746,817.5458,801.4286,787.326
730.10986,788.1319,774.0293,497.21613
738.97437,762.74725,776.04395,545.16486
771.2088,796.1905,812.3077,860.65936
778.0586,809.89014,823.9927,1019.81683
765.56775,791.75824,795.38464,836.4835
745.42126,772.8205,767.98535,537.1062
709.9634,790.14655,770.80585,471.42856
725.2747,801.8315,787.326,560.07324
740.18317,786.1172,786.9231,536.7033
755.89746,810.696,819.9634,829.2308
766.3736,801.02563,811.9048,1009.7436
771.2088,786.1172,789.7436,869.12085
747.03296,780.07324,773.6264,575.78754
728.9011,792.5641,788.5348,523.8095
747.03296,809.0842,818.7546,801.8315
756.30035,790.9524,823.5897,1005.31134
747.03296,786.52014,807.47253,892.49084
728.49817,784.10254,780.4762,582.23444
719.6337,779.2674,781.28204,468.20514
737.76556,796.99634,805.8608,730.5128
760.32965,807.8755,817.9487,971.4652
763.1502,802.23444,806.26373,911.02563
743.8095,799.41394,782.49084,547.1795
752.674,806.6667,799.81683,739.3773
748.6447,793.7729,785.31134,655.56775
765.56775,812.3077,817.1429,937.619
765.16486,801.4286,807.47253,913.0403
746.63007,763.1502,786.52014,680.9524
735.34796,767.98535,783.2967,545.9707
751.8681,791.75824,794.17584,724.0659
772.8205,801.02563,807.0696,938.4249
775.64105,795.38464,804.2491,940.0366
762.3443,791.3553,788.5348,728.0952
742.6007,782.49084,776.04395,563.69965
748.6447,781.28204,784.10254,703.1135
780.4762,798.60803,801.02563,936.8132
780.87915,796.5934,802.23444,969.0476
761.13556,803.44324,787.72894,760.32965
744.21246,796.5934,775.2381,577.3993
752.674,776.04395,788.93774,686.99634
767.1795,776.4469,800.6227,898.5348
761.13556,785.7143,794.9817,942.0513
750.65936,784.10254,781.28204,756.30035
741.39197,777.25275,773.22345,567.326
734.94507,781.28204,781.685,641.4652
749.85345,796.5934,797.8022,861.06226
764.35895,800.6227,802.6374,955.7509
761.13556,796.5934,790.9524,801.02563
745.82416,787.72894,774.0293,592.3077
741.39197,808.68134,784.10254,635.42126
781.685,776.4469,797.8022,951.7216
768.3883,811.0989,805.4579,859.0476
765.9707,782.8938,784.10254,810.696
748.24176,770.40295,774.0293,606.8132
777.25275,780.4762,787.326,821.978
750.2564,786.52014,776.8498,609.6337
796.5934,788.5348,795.38464,963.8095
780.07324,786.1172,790.9524,855.42126
763.1502,785.31134,776.04395,623.73627
760.32965,776.04395,779.2674,592.3077
804.65204,819.5604,811.50183,968.6447
791.75824,798.60803,804.65204,895.7143
770.0,760.32965,782.0879,665.2381
785.7143,784.90845,798.60803,807.47253
753.8828,758.315,776.4469,587.0696
761.13556,770.0,790.14655,775.2381
780.4762,778.46155,800.6227,948.0952
771.6117,788.93774,796.99634,908.20514
753.8828,782.8938,785.7143,685.78754
740.989,759.5238,777.25275,566.52014
745.42126,771.2088,789.34064,730.9158
763.5531,778.46155,801.4286,920.696
772.4176,777.6557,795.78754,911.4286
758.71796,790.14655,782.0879,701.9048
754.68866,785.31134,778.46155,572.96704
775.2381,777.6557,792.1612,717.2161
790.14655,775.64105,800.6227,914.65204
790.54944,778.46155,790.9524,930.7692
782.8938,779.2674,776.04395,736.55676
769.59705,767.98535,770.80585,575.78754
777.25275,778.86444,782.49084,691.02563
813.5165,794.17584,803.0403,977.1062
800.2198,794.9817,791.3553,802.6374
769.19415,764.35895,769.59705,601.978
777.25275,783.2967,784.90845,697.0696
800.6227,797.8022,803.8461,926.337
808.2784,777.25275,799.011,988.7912
784.90845,767.98535,780.87915,814.7253
797.3993,787.326,793.7729,912.6374
761.9414,765.9707,772.01465,605.6044
775.2381,787.326,799.011,872.74725
761.9414,777.6557,782.49084,651.9414
782.8938,790.54944,805.4579,984.7619
761.53845,784.5055,788.1319,829.2308
735.34796,778.0586,774.83514,601.5751
737.76556,772.01465,777.6557,609.2308
761.13556,779.67035,789.34064,823.1868
780.87915,810.696,804.2491,962.6007
778.0586,822.7839,797.3993,848.5714
754.68866,787.72894,776.04395,617.6923
750.2564,757.50916,774.83514,592.71063
772.4176,778.86444,794.9817,821.1722
783.69965,794.57874,807.8755,977.9121
775.2381,786.9231,795.78754,881.2088
760.7326,781.685,777.25275,651.13556
746.2271,779.2674,768.7912,583.0403
767.1795,799.41394,782.0879,792.5641
801.8315,817.1429,799.41394,984.7619
803.8461,796.99634,796.1905,931.5751
780.4762,790.14655,778.0586,690.2198
765.9707,797.3993,773.6264,592.71063
780.4762,807.0696,797.3993,792.1612
790.9524,802.6374,798.60803,965.0183
782.8938,788.93774,776.04395,929.5604
763.95605,783.2967,763.5531,710.3663
738.97437,775.64105,759.12085,573.36993
754.2857,793.36993,782.49084,744.61536
768.7912,807.47253,794.9817,933.5897
761.53845,805.4579,788.5348,926.337
752.27106,795.38464,778.86444,718.022
737.76556,793.36993,766.3736,560.07324
740.58606,823.9927,772.01465,688.60803
759.92676,830.4396,788.5348,894.90845
762.3443,799.011,796.1905,924.7253
743.4066,793.7729,784.10254,732.52747
735.7509,803.44324,774.0293,558.46155
744.21246,821.1722,790.14655,668.46155
766.77655,820.3663,800.6227,881.2088
784.10254,814.7253,796.99634,950.9158
774.0293,803.0403,785.7143,786.9231
747.4359,780.4762,773.6264,579.81683
747.03296,787.326,785.31134,643.8828
768.3883,805.4579,796.5934,864.68866
786.1172,829.2308,799.41394,964.21246
777.6557,805.4579,789.34064,807.8755
753.47986,762.3443,772.4176,595.5311
749.0476,770.80585,776.8498,635.42126
770.40295,799.41394,791.3553,848.97437
784.10254,805.8608,794.9817,971.4652
771.6117,791.75824,780.4762,844.94507
750.65936,786.9231,774.0293,610.4396
744.21246,778.0586,782.8938,601.978
751.06226,773.22345,790.9524,812.71063
767.98535,784.90845,802.6374,940.0366
761.9414,782.0879,793.7729,834.4689
735.7509,783.69965,770.80585,613.2601
740.18317,785.7143,769.19415,571.3553
755.09155,776.4469,783.69965,769.59705
768.7912,793.36993,794.9817,925.12823
768.7912,794.57874,785.31134,858.24176
751.8681,780.07324,772.8205,636.2271
740.989,774.0293,776.8498,560.4762
761.13556,787.72894,790.14655,748.24176
781.685,800.6227,801.4286,925.9341
790.14655,782.8938,797.3993,893.69965
772.4176,782.49084,780.07324,676.52014
753.47986,792.1612,780.4762,564.90845
764.35895,802.6374,795.38464,740.18317
781.28204,795.78754,807.8755,940.0366
777.6557,775.64105,799.81683,913.0403
758.315,778.86444,780.87915,695.05493
745.0183,773.6264,781.28204,564.5055
753.0769,780.07324,796.99634,712.381
764.7619,790.9524,809.0842,918.68134
767.5824,784.90845,803.0403,934.3956
758.315,776.8498,784.5055,735.7509
753.0769,784.10254,781.28204,585.05493
766.3736,790.9524,798.60803,701.9048
775.2381,784.10254,804.65204,898.93774
776.8498,799.011,797.3993,943.2601
767.5824,801.02563,786.1172,767.5824
755.4945,770.80585,768.3883,576.5934
759.5238,762.74725,776.04395,655.16486
780.87915,780.4762,796.1905,867.9121
794.9817,792.96704,797.8022,940.0366
786.9231,788.1319,788.93774,781.685
772.8205,782.8938,779.67035,594.3223
776.4469,786.9231,786.9231,658.7912
794.9817,793.7729,801.4286,866.30035
796.99634,794.57874,796.1905,948.0952
789.34064,780.87915,780.4762,807.8755
774.0293,783.69965,773.22345,604.7985
769.59705,790.9524,778.86444,628.1685
790.14655,776.4469,793.7729,843.3333
790.14655,790.14655,803.8461,967.03296
775.64105,794.57874,794.17584,857.8388
749.85345,757.9121,770.40295,642.674
743.8095,758.315,772.8205,631.79486
765.9707,779.2674,798.20514,855.42126
778.46155,792.1612,807.47253,996.04395
769.19415,787.326,794.57874,884.0293
753.47986,773.6264,780.4762,667.25275
765.56775,799.011,801.4286,807.0696
784.5055,803.0403,808.2784,961.79486
782.8938,778.0586,792.96704,889.2674
747.03296,772.4176,782.49084,613.2601
765.16486,772.4176,774.43225,686.5934
754.2857,776.4469,769.59705,601.978
768.3883,788.93774,788.1319,774.83514
781.685,807.0696,802.23444,949.304
784.90845,799.011,792.1612,923.1135
760.7326,782.8938,775.2381,599.15753
773.6264,778.86444,775.2381,713.1868
774.0293,788.5348,785.31134,762.3443
794.57874,793.7729,794.57874,947.28937
799.011,811.0989,796.5934,960.58606
780.87915,800.2198,781.28204,759.92676
760.32965,762.3443,763.5531,587.47253
762.74725,766.3736,773.22345,717.619
782.0879,792.1612,798.60803,934.7985
793.7729,794.9817,804.65204,958.97437
779.67035,785.31134,790.9524,766.3736
748.6447,779.2674,777.25275,597.9487
744.61536,782.8938,788.93774,699.4872
770.40295,801.4286,809.0842,920.696
765.16486,796.99634,803.0403,965.42126
743.4066,777.6557,785.31134,779.67035
734.5421,790.14655,780.4762,603.5897
742.1978,782.8938,788.93774,681.3553
764.35895,770.0,801.4286,891.685
773.6264,788.1319,805.4579,971.4652
778.46155,789.7436,792.96704,815.9341
767.98535,783.2967,776.8498,620.9158
763.95605,786.1172,782.8938,660.40295
779.67035,799.011,794.17584,863.47986
801.02563,804.65204,794.57874,972.674
800.2198,791.3553,784.10254,842.9304
773.22345,776.04395,767.5824,621.7216
774.0293,787.326,776.04395,633.4066
788.93774,821.1722,798.20514,854.61536
790.54944,804.2491,792.5641,968.24176
789.34064,767.1795,783.69965,865.09155
770.0,758.71796,774.0293,653.5531
754.2857,757.9121,770.80585,612.4542
773.6264,776.04395,790.9524,824.3956
780.07324,778.46155,796.1905,974.2857
770.40295,772.01465,789.7436,891.28204
747.8388,759.92676,772.8205,595.5311
752.27106,771.2088,790.54944,773.6264
763.1502,778.46155,807.0696,944.0659
764.7619,791.75824,794.57874,898.93774
750.2564,777.6557,775.2381,688.20514
728.9011,759.12085,774.0293,588.68134
747.03296,777.6557,788.5348,759.5238
778.46155,776.8498,798.20514,938.4249
779.2674,766.77655,792.96704,914.2491
762.74725,757.50916,776.04395,694.65204
763.1502,766.77655,779.67035,677.326
768.3883,759.92676,774.0293,576.1905
798.20514,782.8938,799.41394,916.6667
803.44324,785.7143,801.4286,931.5751
786.52014,772.4176,788.5348,733.73627
789.34064,780.4762,783.2967,744.21246
766.77655,791.75824,773.6264,587.47253
776.4469,787.326,795.38464,714.7985
789.7436,776.04395,810.293,912.6374
790.14655,771.2088,801.02563,942.4542
774.0293,766.77655,786.9231,763.1502
754.2857,770.80585,777.25275,584.2491
755.4945,760.32965,780.87915,675.31134
763.1502,772.4176,796.99634,880.80585
770.0,780.07324,797.3993,938.022
757.9121,764.35895,782.49084,773.6264
735.7509,761.13556,772.8205,578.20514
738.5714,763.1502,783.2967,635.82416
762.3443,792.1612,804.65204,858.24176
780.87915,802.23444,805.8608,960.18317
786.52014,772.01465,788.93774,819.15753
773.6264,759.12085,776.4469,608.022
774.43225,764.35895,783.2967,638.6447
802.23444,783.2967,803.0403,859.85345
814.3223,783.69965,812.3077,977.50916
800.2198,788.5348,801.4286,858.6447
776.8498,774.83514,788.93774,643.0769
772.4176,757.50916,793.7729,624.94507
791.3553,773.6264,808.2784,832.4542
796.5934,776.4469,813.91943,964.61536
778.46155,787.326,801.8315,860.65936
751.4652,772.4176,781.28204,639.0476
736.9597,748.24176,776.8498,582.6374
748.24176,762.3443,790.9524,782.0879
758.71796,778.46155,794.57874,941.2454
759.5238,781.685,788.93774,881.2088
742.6007,771.2088,776.4469,672.0879
732.9304,768.7912,776.4469,589.4872
754.68866,784.10254,797.8022,766.3736
779.2674,796.99634,811.0989,939.6337
771.6117,803.0403,803.8461,918.68134
755.4945,786.9231,788.5348,707.1429
749.0476,792.5641,787.326,580.2198
756.7033,800.2198,800.2198,750.65936
777.6557,778.0586,807.8755,938.8278
780.4762,776.04395,798.60803,925.5311
772.8205,780.07324,784.90845,732.9304
762.74725,775.64105,777.25275,595.12823
763.5531,779.67035,790.9524,735.7509
785.31134,792.5641,805.05493,944.87177
793.7729,793.36993,796.1905,961.39197
771.6117,785.31134,780.07324,764.35895
754.2857,774.83514,769.19415,601.978
760.7326,782.0879,782.49084,711.1722
778.0586,815.9341,805.4579,921.9048
782.49084,819.5604,809.0842,978.71796
753.0769,774.43225,784.5055,786.9231
725.2747,748.24176,767.98535,585.05493
735.7509,770.40295,784.5055,664.0293
757.9121,789.34064,804.2491,883.6264
765.9707,788.93774,804.65204,958.97437
751.06226,781.685,788.5348,803.0403
745.42126,778.0586,788.1319,648.315
767.5824,784.10254,801.02563,855.82416
775.64105,784.90845,803.0403,950.9158
768.7912,803.0403,796.1905,830.0366
736.55676,775.2381,778.46155,603.9927
749.45056,786.9231,772.8205,613.663
782.8938,792.1612,794.17584,826.8132
791.3553,805.4579,798.60803,951.7216
783.2967,782.8938,786.1172,844.94507
765.9707,770.40295,772.4176,639.85345
753.47986,759.12085,770.40295,609.6337
769.59705,776.4469,773.22345,611.6484
803.0403,801.4286,805.8608,965.82416
799.011,798.60803,790.9524,887.25275
773.22345,776.04395,775.2381,669.67035
765.16486,795.38464,784.90845,608.8278
774.43225,802.23444,799.41394,803.0403
779.67035,774.0293,803.0403,973.47986
772.01465,775.64105,797.3993,918.2784
759.92676,773.6264,787.326,694.2491
745.42126,763.95605,782.49084,593.5165
735.7509,780.87915,792.96704,767.98535
790.14655,792.1612,794.9817,815.5311
752.27106,789.7436,806.26373,954.94507
753.8828,772.01465,794.17584,914.2491
731.7216,766.77655,777.6557,698.68134
724.87177,764.7619,778.0586,570.9524
742.1978,771.2088,799.011,717.619
761.53845,799.81683,816.337,931.1722
764.7619,793.36993,807.0696,944.0659
753.8828,761.53845,784.5055,729.304
755.4945,757.1062,774.0293,563.69965
780.07324,772.8205,786.52014,697.8755
801.02563,792.96704,796.1905,916.6667
813.1135,807.0696,797.3993,961.79486
809.4872,792.5641,782.0879,772.8205
796.1905,787.72894,770.0,583.8461
803.8461,803.8461,787.72894,680.9524
826.4103,803.0403,805.4579,901.3553
826.0073,805.4579,799.81683,969.45056
809.0842,814.3223,781.685,796.99634
790.9524,783.69965,766.77655,581.02563
784.5055,765.9707,771.6117,631.79486
797.3993,793.7729,789.34064,867.50916
799.41394,794.57874,795.78754,967.03296
781.28204,779.2674,782.49084,800.2198
755.89746,769.59705,767.1795,579.41394
745.0183,773.6264,778.86444,604.7985
752.674,784.10254,813.1135,960.58606
760.32965,788.1319,805.05493,838.49817
725.2747,768.3883,790.54944,807.47253
711.978,773.6264,776.8498,586.26373
711.1722,788.93774,787.72894,583.44324
723.2601,779.67035,801.4286,799.011
740.18317,765.16486,803.8461,951.31866
745.82416,762.74725,792.5641,853.8095
725.2747,757.50916,773.6264,613.663
730.9158,772.4176,775.64105,562.49084
761.53845,781.685,790.9524,779.67035
795.38464,794.9817,802.6374,963.00366
816.7399,807.47253,804.2491,909.41394
803.8461,790.14655,786.52014,676.52014
798.60803,783.69965,784.10254,580.2198
814.7253,797.3993,798.20514,782.8938
831.6484,822.7839,807.0696,981.9414
832.8571,810.696,798.60803,943.663
807.47253,785.31134,775.2381,705.5311
797.3993,777.6557,772.01465,564.90845
817.1429,782.8938,788.5348,735.7509
827.619,801.02563,801.8315,950.5128
820.3663,804.2491,799.81683,951.31866
797.8022,792.5641,780.87915,717.619
768.3883,779.67035,767.5824,547.98535
759.92676,783.69965,778.0586,697.0696
773.22345,791.75824,795.78754,921.9048
772.4176,788.93774,800.6227,950.5128
751.4652,791.3553,786.9231,734.1392
725.6777,773.6264,771.2088,547.5824
724.0659,757.9121,780.87915,666.04395
741.39197,774.0293,801.02563,903.7729
743.4066,780.07324,799.41394,965.42126
735.7509,778.0586,784.90845,778.86444
726.4835,759.92676,772.8205,577.8022
732.52747,762.3443,788.1319,656.77655
776.8498,794.17584,814.3223,994.0293
774.0293,785.7143,799.41394,831.2454
757.50916,771.6117,781.685,606.8132
763.95605,792.96704,795.38464,655.16486
788.93774,806.26373,814.7253,904.57874
800.2198,782.49084,812.3077,1012.1612
786.52014,780.4762,796.5934,860.2564
764.7619,776.04395,778.46155,621.7216
765.16486,774.0293,780.07324,620.9158
786.1172,792.5641,799.41394,860.65936
755.09155,785.7143,811.0989,894.5055
803.0403,816.337,809.0842,1003.69965
795.38464,795.38464,783.2967,867.50916
767.98535,766.77655,761.13556,616.08057
758.71796,773.22345,769.19415,576.99634
774.0293,786.52014,784.5055,789.7436
784.90845,816.7399,799.81683,960.58606
785.7143,815.5311,799.81683,884.0293
763.5531,773.22345,778.0586,641.4652
752.27106,771.2088,777.25275,556.8498
766.77655,796.99634,791.75824,761.53845
776.04395,806.26373,794.57874,949.304
784.10254,804.2491,786.1172,909.81683
764.7619,787.72894,771.6117,672.49084
742.6007,771.2088,774.83514,545.16486
753.47986,787.326,801.4286,748.6447
783.2967,811.50183,816.7399,975.89746
778.86444,795.78754,806.26373,944.4689
759.12085,795.78754,795.78754,712.7839
757.50916,793.7729,786.52014,574.9817
764.35895,780.87915,791.3553,742.1978
786.1172,796.1905,809.0842,974.2857
805.8608,803.44324,808.2784,990.0
782.0879,785.7143,786.1172,755.4945
754.68866,777.6557,775.64105,576.1905
762.3443,783.2967,786.9231,703.91943
784.5055,800.6227,788.5348,982.74725
768.7912,786.9231,771.2088,768.7912
746.63007,773.22345,759.12085,560.07324
748.6447,800.2198,781.28204,676.1172
778.86444,792.5641,792.1612,927.9487
769.19415,812.3077,794.17584,910.6227
776.04395,786.52014,790.54944,979.5238
759.12085,774.0293,778.0586,792.1612
732.9304,769.19415,764.35895,568.5348
734.1392,773.22345,781.28204,643.47986
765.9707,799.011,807.0696,897.326
778.46155,807.0696,811.50183,1012.5641
750.65936,783.69965,780.07324,617.28937
753.8828,788.93774,794.57874,650.32965
776.4469,798.60803,811.50183,905.78754
797.8022,820.7692,816.7399,1047.2161
786.9231,798.60803,802.23444,902.96704
763.5531,763.1502,784.90845,647.1062
770.0,782.8938,794.9817,637.8388
789.7436,794.17584,811.50183,879.59705
801.02563,788.5348,809.89014,1030.2931
797.3993,790.14655,796.1905,915.8608
762.3443,787.72894,790.14655,849.7802
780.07324,779.67035,776.8498,663.22345
773.6264,776.4469,779.2674,596.7399
793.36993,794.17584,796.5934,819.5604
807.47253,801.4286,798.60803,1009.7436
805.8608,799.011,793.7729,917.47253
786.9231,801.8315,785.31134,657.98535
761.53845,777.6557,778.86444,572.96704
776.04395,788.1319,806.26373,981.9414
780.87915,793.36993,800.6227,947.6923
760.7326,781.28204,783.2967,697.0696
761.9414,767.5824,791.75824,772.4176
755.89746,788.1319,782.49084,566.1172
767.1795,791.75824,798.60803,755.89746
780.87915,794.9817,809.89014,984.35895
783.69965,801.8315,803.44324,977.50916
765.16486,787.326,786.52014,728.9011
754.2857,780.07324,780.87915,558.0586
765.9707,804.65204,795.38464,725.6777
792.1612,810.696,805.8608,972.674
804.2491,786.52014,799.81683,996.8498
783.2967,772.01465,780.87915,760.32965
764.35895,771.6117,769.19415,562.0879
777.25275,787.326,785.7143,697.8755
797.8022,799.41394,805.05493,944.87177
807.0696,799.41394,803.8461,1005.31134
790.54944,803.44324,788.1319,805.05493
770.0,795.78754,782.49084,586.26373
774.0293,783.69965,791.75824,664.43225
786.52014,789.7436,808.68134,919.0842
790.14655,809.89014,812.3077,1017.8022
778.86444,801.4286,795.78754,828.4249
755.89746,761.9414,779.2674,583.8461
751.4652,765.56775,784.90845,619.707
776.8498,787.326,805.05493,876.3736
790.9524,794.57874,812.3077,1009.34064
775.64105,787.72894,800.2198,846.1539
758.71796,778.86444,785.7143,595.12823
761.13556,779.67035,786.1172,599.9634
782.49084,795.78754,804.65204,854.61536
795.78754,799.81683,803.8461,1012.96704
791.75824,802.6374,789.34064,884.83514
775.2381,809.4872,778.86444,640.65936
764.35895,788.1319,776.04395,595.9341
784.10254,777.6557,794.17584,831.6484
803.44324,784.10254,800.2198,1016.99634
796.5934,786.9231,787.72894,905.78754
780.4762,784.90845,780.87915,654.35895
765.9707,772.8205,775.64105,571.75824
776.4469,784.10254,792.1612,788.93774
791.75824,790.9524,799.41394,945.2747
760.32965,766.77655,774.83514,671.28204
798.20514,807.8755,811.50183,1005.31134
738.5714,762.3443,767.1795,545.9707
757.50916,787.326,790.14655,761.9414
775.64105,813.91943,805.05493,978.315
775.2381,792.5641,796.5934,948.49817
763.5531,765.56775,778.46155,698.2784
743.4066,762.3443,768.3883,537.50916
778.86444,789.7436,798.20514,946.8865
755.09155,781.28204,784.90845,716.8132
780.4762,787.72894,796.5934,953.3333
749.45056,771.6117,772.8205,531.8681
764.35895,781.28204,782.49084,717.2161
758.71796,778.46155,786.1172,678.1319
782.0879,792.1612,806.6667,930.7692
798.20514,807.8755,807.0696,985.56775
776.4469,788.1319,777.6557,755.09155
745.82416,760.7326,765.16486,533.47986
755.89746,771.6117,784.5055,654.7619
782.8938,800.2198,803.0403,909.81683
788.1319,805.4579,807.47253,990.0
774.0293,769.19415,782.49084,782.8938
754.68866,755.89746,763.5531,540.32965
771.6117,789.34064,794.9817,881.6117
783.2967,792.5641,795.38464,996.8498
769.59705,780.07324,780.07324,816.337
751.8681,770.80585,780.07324,614.4689
754.68866,792.1612,773.6264,574.17584
749.0476,786.9231,782.49084,587.8755
763.5531,779.67035,795.38464,832.4542
783.69965,792.1612,805.05493,985.9707
773.6264,789.34064,793.36993,836.08057
742.1978,779.2674,776.04395,568.5348
728.0952,777.25275,776.4469,548.7912
755.4945,794.17584,795.78754,817.1429
781.685,785.7143,792.5641,884.83514
758.71796,776.4469,776.4469,616.4835
743.4066,781.685,780.07324,540.7326
784.5055,798.20514,803.0403,1001.28204
756.30035,813.5165,803.0403,783.2967
777.6557,811.0989,804.2491,994.83514
748.24176,771.2088,781.685,638.24176
780.87915,782.49084,793.7729,916.26373
726.08057,762.3443,777.25275,526.2271
756.30035,774.0293,797.3993,761.9414
775.64105,783.2967,803.44324,991.6117
761.53845,778.46155,793.7729,944.0659
740.989,765.9707,772.4176,548.7912
760.32965,780.07324,795.78754,745.42126
780.4762,779.2674,807.47253,973.0769
776.04395,791.3553,799.011,967.4359
753.47986,771.6117,781.28204,704.7253
742.6007,740.18317,762.3443,501.24542
758.315,763.5531,778.86444,679.7436
776.04395,784.90845,799.81683,946.4835
776.04395,788.93774,797.3993,971.8681
759.92676,777.6557,784.5055,724.0659
743.8095,765.9707,776.04395,685.38464
745.0183,766.77655,777.25275,518.5714
751.4652,774.0293,790.9524,655.56775
769.59705,790.9524,810.293,915.8608
778.46155,792.5641,811.9048,982.3443
755.89746,772.8205,788.93774,755.09155
733.73627,775.64105,776.8498,524.61536
744.61536,790.14655,792.96704,629.3773
767.98535,784.5055,806.6667,900.54944
784.5055,776.8498,809.0842,1000.07324
778.46155,776.4469,797.8022,803.44324
755.4945,772.4176,783.69965,560.07324
749.45056,772.8205,788.93774,606.0073
771.6117,787.326,808.2784,872.74725
785.7143,786.1172,809.4872,1006.1172
784.10254,778.86444,797.8022,830.0366
763.95605,774.83514,783.2967,560.87915
749.0476,770.0,782.0879,561.685
763.95605,799.011,798.60803,828.8278
782.8938,803.44324,805.05493,992.8205
778.86444,766.3736,794.57874,853.00366
759.5238,763.95605,778.86444,583.0403
748.24176,763.5531,774.43225,541.13556
767.5824,773.6264,790.54944,787.72894
791.75824,795.38464,812.71063,989.19415
783.69965,794.57874,799.41394,895.7143
755.4945,774.83514,779.2674,544.35895
766.3736,782.49084,793.36993,773.22345
793.7729,795.38464,802.23444,990.0
786.1172,808.68134,798.60803,925.12823
752.27106,785.7143,774.83514,643.8828
732.9304,754.68866,765.56775,509.70697
752.674,780.07324,791.3553,724.4689
765.56775,781.28204,776.8498,626.9597
777.25275,796.99634,801.4286,971.4652
779.67035,793.7729,796.1905,949.707
760.7326,782.8938,780.4762,680.54944
743.00366,760.7326,772.01465,512.52747
761.9414,778.0586,795.38464,689.011
780.4762,790.54944,807.47253,938.4249
789.34064,785.7143,801.02563,954.94507
773.6264,772.8205,784.90845,703.5165
758.315,778.46155,775.64105,509.30402
771.2088,776.4469,786.9231,656.3736
787.72894,773.22345,798.20514,957.76556
778.46155,776.04395,784.10254,722.0513
756.7033,767.5824,771.6117,493.1868
760.32965,770.0,782.0879,606.8132
783.69965,763.1502,800.2198,906.1905
785.31134,782.8938,802.6374,865.4945
771.6117,778.46155,781.685,743.8095
747.03296,753.47986,764.7619,488.75458
747.4359,764.35895,779.2674,546.3736
767.98535,797.8022,802.6374,812.3077
786.1172,792.96704,800.6227,942.8571
767.1795,755.4945,781.685,749.45056
729.707,751.06226,770.40295,475.05493
730.5128,762.74725,778.46155,494.79852
750.65936,780.4762,791.3553,774.0293
789.34064,795.38464,801.4286,954.94507
760.32965,793.36993,798.20514,941.6484
751.4652,786.1172,790.14655,789.34064
733.73627,774.0293,777.6557,506.48352
732.52747,775.2381,780.87915,480.69598
759.12085,785.31134,793.7729,755.4945
787.72894,807.47253,805.8608,967.4359
788.93774,812.71063,799.41394,856.63007
759.92676,775.2381,778.0586,573.7729
747.03296,758.315,774.43225,509.30402
782.0879,792.1612,814.3223,1007.72894
776.8498,783.2967,801.4286,920.293
755.09155,772.01465,781.28204,633.00366
769.19415,782.8938,800.2198,776.04395
754.2857,769.19415,782.49084,547.1795
788.5348,791.75824,807.0696,1034.7252
785.7143,783.69965,799.011,1002.49084
780.87915,783.2967,805.8608,803.44324
771.6117,771.2088,786.1172,748.24176
767.98535,796.5934,799.41394,820.7692
754.2857,789.34064,785.7143,618.0952
786.9231,781.28204,797.8022,1026.2638
768.3883,762.74725,780.87915,779.2674
747.8388,766.3736,777.6557,625.34796
780.87915,789.34064,803.0403,1046.4103
766.77655,783.69965,795.38464,809.4872
785.31134,792.96704,804.65204,1046.4103
788.5348,790.9524,797.3993,1060.5128
765.9707,773.6264,774.0293,638.24176
769.59705,776.4469,787.326,774.0293
783.2967,780.87915,784.10254,827.2161
786.52014,798.60803,807.0696,1024.249
773.22345,756.7033,786.9231,861.8681
791.75824,794.9817,808.2784,1091.5385
749.0476,748.6447,772.01465,622.52747
757.1062,780.07324,788.5348,721.2454
778.86444,790.54944,802.23444,982.3443
783.69965,776.8498,804.2491,1079.4506
760.7326,770.0,786.9231,883.6264
743.8095,761.53845,767.5824,632.6007
752.674,774.43225,783.2967,691.4286
771.2088,792.1612,805.8608,948.49817
781.685,788.93774,811.0989,1073.0037
772.8205,799.011,799.41394,902.96704
751.4652,783.2967,780.87915,632.1978
749.85345,753.0769,786.9231,651.9414
774.0293,776.4469,809.0842,909.41394
794.57874,798.20514,811.9048,1048.022
790.54944,792.96704,800.2198,910.6227
755.4945,783.69965,781.28204,635.0183
745.0183,786.9231,782.0879,592.71063
770.0,789.7436,798.20514,840.9158
786.9231,793.36993,807.8755,1025.0549
782.8938,792.5641,807.0696,919.4872
763.95605,782.49084,782.8938,637.03296
760.32965,794.9817,780.87915,560.07324
780.4762,799.81683,803.0403,798.20514
790.9524,791.3553,812.71063,998.0586
782.49084,788.93774,798.20514,921.9048
771.6117,777.6557,775.64105,648.315
759.92676,772.4176,777.6557,535.09155
763.1502,778.0586,792.5641,742.6007
783.69965,794.9817,804.65204,968.24176
786.52014,790.9524,795.78754,944.4689
767.98535,786.52014,780.07324,685.78754
767.98535,780.07324,791.75824,728.9011
792.96704,809.89014,810.696,987.1795
759.5238,786.1172,781.28204,533.8828
769.59705,766.3736,784.10254,725.6777
759.5238,771.2088,780.07324,533.0769
793.7729,797.8022,803.44324,981.53845
778.46155,791.3553,805.05493,950.9158
765.16486,784.90845,795.38464,689.011
783.69965,789.34064,800.6227,992.01465
768.3883,782.0879,785.31134,760.32965
763.5531,781.28204,786.9231,646.7033
786.9231,796.1905,808.2784,919.0842
797.8022,803.8461,811.9048,1006.52014
751.06226,776.04395,772.4176,530.65936
787.72894,804.2491,796.5934,794.17584
764.35895,802.6374,780.07324,553.22345
761.13556,779.2674,786.52014,624.5421
794.17584,774.43225,807.8755,892.49084
805.4579,784.5055,809.0842,1007.326
781.685,782.49084,790.14655,810.696
761.9414,774.0293,776.4469,557.25275
763.5531,778.46155,789.7436,603.9927
791.3553,790.54944,808.2784,1001.28204
783.2967,778.0586,795.38464,845.34796
763.95605,768.7912,774.0293,565.7143
771.2088,801.02563,790.9524,572.1612
796.1905,807.8755,812.3077,853.00366
807.8755,786.52014,813.5165,1028.6813
800.2198,797.3993,805.8608,898.93774
783.2967,781.28204,789.7436,609.2308
780.87915,775.2381,794.9817,556.4469
791.75824,793.7729,817.5458,813.1135
779.2674,792.1612,803.0403,861.8681
800.2198,792.5641,821.978,1015.78754
796.1905,786.1172,806.6667,927.9487
769.19415,776.8498,787.72894,643.47986
768.7912,779.67035,806.6667,774.83514
785.7143,804.2491,823.9927,997.6557
754.68866,772.8205,788.5348,539.5238
784.5055,803.8461,816.337,944.0659
763.95605,767.1795,786.9231,666.8498
751.8681,764.7619,781.685,520.18317
760.7326,778.46155,798.60803,729.304
778.46155,794.57874,813.5165,977.9121
793.7729,794.9817,810.696,965.82416
776.8498,768.7912,791.75824,693.0403
793.36993,794.17584,814.7253,958.97437
797.8022,791.75824,807.0696,984.7619
783.2967,797.8022,787.326,749.45056
763.1502,778.0586,776.8498,546.77655
770.40295,763.1502,791.3553,683.36993
786.9231,790.9524,807.8755,942.0513
792.96704,794.9817,805.05493,1011.3553
785.31134,788.1319,790.14655,784.5055
765.16486,784.90845,776.04395,538.71796
770.80585,780.87915,799.81683,708.7546
754.68866,765.56775,784.10254,520.18317
769.59705,791.3553,782.8938,638.24176
794.17584,811.50183,804.65204,917.0696
799.011,803.0403,809.4872,1021.4286
782.49084,780.87915,790.54944,800.6227
762.74725,785.31134,778.46155,535.09155
769.19415,805.4579,788.5348,604.7985
782.0879,801.02563,802.23444,870.32965
784.90845,788.5348,807.0696,999.2674
778.0586,777.25275,790.9524,826.4103
761.13556,770.0,772.4176,559.67035
777.25275,794.57874,800.2198,841.31866
758.71796,777.6557,778.86444,572.1612
786.52014,799.41394,805.4579,997.25275
775.2381,790.14655,789.7436,838.9011
753.0769,777.6557,775.2381,568.1319
749.85345,784.10254,783.2967,550.0
770.0,806.26373,806.26373,821.978
790.54944,819.9634,816.337,1022.6374
789.34064,799.81683,797.8022,907.8022
760.7326,770.0,773.6264,619.707
754.2857,767.5824,778.0586,542.74725
774.83514,783.69965,801.02563,786.9231
790.9524,802.23444,815.5311,1010.9524
796.1905,804.2491,807.47253,947.6923
786.9231,790.54944,789.7436,665.64105
775.64105,780.07324,783.69965,541.13556
786.9231,788.93774,799.41394,765.16486
801.4286,795.78754,810.696,1002.49084
796.5934,792.96704,802.23444,962.1978
782.49084,803.44324,785.7143,700.696
776.4469,804.2491,778.86444,546.3736
789.34064,793.7729,798.20514,734.94507
796.1905,792.1612,807.0696,971.06226
797.3993,795.78754,796.99634,964.61536
779.67035,787.326,786.9231,713.5897
756.30035,775.64105,778.46155,513.3333
769.59705,790.9524,790.14655,680.54944
792.5641,808.2784,808.68134,948.49817
793.36993,809.4872,808.2784,999.67035
776.4469,800.2198,789.34064,755.4945
757.9121,787.326,773.6264,504.46887
761.9414,804.65204,784.5055,637.03296
782.0879,811.9048,799.81683,917.8755
788.1319,790.54944,799.011,989.59705
776.8498,788.93774,781.28204,769.19415
757.9121,794.17584,770.80585,529.85345
750.2564,780.87915,784.10254,619.707
771.6117,786.9231,802.23444,896.52014
795.38464,809.4872,807.47253,1018.20514
786.9231,805.05493,792.5641,825.2015
768.7912,794.17584,773.22345,552.01465
767.98535,796.5934,779.67035,585.05493
784.10254,799.81683,803.0403,870.32965
796.5934,818.7546,808.68134,1027.0696
792.5641,811.50183,796.5934,857.8388
769.19415,776.8498,777.6557,565.7143
755.89746,776.4469,773.6264,547.98535
770.40295,790.9524,790.14655,826.4103
780.07324,792.96704,796.5934,1001.28204
769.59705,789.7436,782.49084,865.4945
756.7033,793.36993,771.2088,595.12823
753.47986,780.4762,777.25275,539.12085
768.7912,774.0293,791.3553,796.1905
788.5348,794.17584,807.0696,1006.52014
787.326,792.96704,802.23444,909.81683
778.46155,801.8315,787.72894,639.85345
770.0,803.0403,782.0879,535.89746
781.685,791.75824,796.99634,988.3883
772.8205,792.96704,787.72894,763.95605
783.2967,782.0879,792.1612,926.7399
767.1795,776.4469,772.01465,644.68866
753.8828,772.01465,766.3736,507.28937
771.2088,790.54944,791.3553,742.1978
793.7729,804.65204,803.44324,1000.4762
799.81683,814.3223,799.41394,983.5531
777.25275,792.96704,780.4762,701.0989
756.30035,760.32965,765.16486,510.1099
766.3736,797.8022,785.31134,704.3223
794.57874,817.1429,804.65204,987.1795
795.78754,786.9231,798.60803,1010.9524
773.6264,781.28204,779.67035,749.0476
767.5824,778.86444,769.59705,529.85345
773.22345,782.0879,780.87915,675.7143
787.326,793.7729,798.20514,972.674
798.60803,794.17584,799.41394,1039.5604
765.9707,786.1172,777.25275,541.53845
786.52014,785.7143,786.1172,784.5055
771.2088,786.1172,784.10254,648.315
805.4579,810.293,809.0842,1045.2014
799.011,798.60803,790.54944,830.0366
774.0293,759.12085,769.59705,546.3736
792.5641,790.14655,803.44324,934.7985
778.86444,765.16486,782.8938,605.6044
797.8022,785.31134,798.20514,1028.2784
801.8315,783.2967,804.65204,894.90845
781.28204,782.49084,785.31134,847.3626
778.0586,778.46155,776.04395,570.54944
776.04395,772.01465,777.25275,579.41394
788.5348,775.64105,795.78754,860.65936
803.8461,780.07324,806.6667,1035.9341
793.36993,776.8498,795.78754,885.2381
767.1795,780.87915,782.49084,599.5604
758.71796,762.74725,781.28204,573.36993
793.7729,787.326,813.5165,1044.3956
786.9231,770.80585,799.81683,923.1135
781.28204,770.0,799.81683,847.76556
772.01465,763.5531,782.0879,626.9597
765.56775,767.5824,782.0879,547.98535
779.67035,779.2674,801.8315,809.89014
793.7729,782.8938,814.3223,1036.7399
789.7436,783.69965,804.65204,959.7802
772.8205,772.8205,784.90845,670.87915
767.98535,771.2088,788.5348,550.0
788.5348,802.23444,811.9048,794.17584
801.8315,806.6667,817.9487,1029.0842
799.011,783.2967,801.8315,979.12085
781.685,764.35895,780.4762,695.8608
763.5531,758.71796,771.6117,531.06226
781.28204,782.8938,789.7436,748.24176
809.4872,797.8022,812.3077,1021.4286
808.68134,783.2967,804.65204,1018.60803
780.87915,772.8205,791.3553,712.381
784.10254,772.4176,779.67035,742.6007
797.3993,790.14655,813.1135,1007.326
806.6667,803.0403,815.5311,1068.1685
791.75824,784.90845,789.34064,804.2491
765.9707,752.674,775.2381,561.685
765.56775,759.5238,790.9524,689.011
795.78754,786.52014,817.1429,977.50916
810.293,788.1319,818.3516,1077.8389
797.8022,778.86444,796.1905,845.34796
773.22345,766.77655,774.43225,539.5238
778.46155,778.46155,783.69965,575.78754
776.04395,779.67035,794.9817,665.64105
810.696,786.1172,813.5165,1079.0476
785.7143,780.4762,799.011,864.68866
800.6227,782.0879,813.1135,960.18317
761.53845,781.28204,783.2967,576.5934
753.0769,775.2381,788.93774,610.84247
764.7619,767.1795,804.65204,897.72894
776.04395,776.8498,806.6667,1062.5275
771.6117,774.0293,799.41394,896.9231
749.45056,762.3443,779.67035,601.1722
747.8388,763.1502,778.86444,584.2491
778.0586,779.67035,805.4579,883.6264
766.3736,768.3883,779.67035,632.6007
764.7619,766.3736,779.67035,571.75824
774.83514,782.8938,802.23444,850.58606
780.07324,790.14655,809.4872,1083.0769
781.28204,761.53845,798.20514,992.01465
756.7033,755.89746,774.43225,670.87915
746.63007,766.77655,776.04395,557.25275
760.32965,770.40295,796.99634,811.9048
781.685,781.28204,809.4872,1072.6007
794.17584,787.326,814.3223,1080.2565
791.3553,778.46155,801.8315,938.022
788.5348,786.9231,807.47253,1033.1135
762.3443,773.6264,789.7436,722.0513
749.45056,767.98535,786.1172,556.04395
767.5824,779.67035,801.8315,787.72894
784.90845,788.93774,813.91943,1057.6923
796.1905,794.9817,807.8755,1041.978
774.83514,791.3553,786.1172,745.0183
756.30035,768.3883,778.46155,534.2857
772.4176,759.5238,792.1612,721.2454
792.5641,772.4176,804.2491,1017.8022
794.57874,778.86444,803.44324,1057.6923
780.4762,770.0,785.7143,767.98535
764.35895,757.9121,771.6117,525.82416
766.3736,772.8205,786.1172,687.8022
790.14655,792.1612,811.50183,991.6117
793.7729,787.326,810.293,1064.9451
778.46155,778.46155,786.1172,806.6667
758.315,780.87915,768.7912,531.06226
754.68866,780.07324,780.4762,645.4945
778.0586,775.64105,801.02563,948.9011
796.1905,792.1612,805.4579,1067.3627
785.31134,793.7729,787.326,847.3626
761.53845,769.59705,770.40295,547.1795
763.95605,770.80585,782.0879,604.7985
784.90845,793.7729,805.05493,908.60803
788.5348,794.57874,807.0696,1059.7069
778.0586,787.326,787.326,864.2857
761.13556,777.25275,771.6117,558.0586
759.12085,784.90845,785.31134,573.36993
781.685,821.5751,813.1135,885.64105
795.38464,808.68134,817.1429,1066.9597
780.4762,773.22345,799.81683,892.49084
757.50916,770.40295,779.67035,576.1905
758.71796,778.46155,782.0879,541.13556
780.4762,794.57874,805.8608,842.52747
790.14655,813.5165,821.978,1070.1831
782.8938,807.47253,809.0842,939.2308
761.13556,775.2381,783.69965,606.0073
744.61536,774.83514,786.52014,511.72162
763.5531,788.5348,805.4579,790.9524
788.5348,796.5934,814.7253,1047.619
784.90845,813.5165,811.0989,971.4652
765.9707,788.1319,786.52014,650.7326
748.6447,753.47986,774.0293,492.38095
762.3443,776.4469,792.96704,743.4066
789.7436,800.2198,807.47253,1027.8755
790.9524,801.8315,799.81683,986.77655
769.19415,786.9231,773.6264,663.6264
753.47986,778.0586,771.2088,479.8901
766.3736,784.5055,799.011,711.978
790.14655,812.71063,815.5311,1005.7143
793.7729,807.47253,801.8315,1019.41394
764.35895,772.4176,777.6557,704.3223
747.03296,783.69965,772.4176,473.84616
762.74725,794.9817,793.36993,664.0293
779.2674,791.75824,809.89014,965.42126
774.0293,793.7729,799.011,1024.249
752.27106,784.90845,770.0,734.5421
738.1685,783.2967,762.3443,467.39926
747.4359,797.3993,782.8938,610.84247
774.83514,818.7546,808.68134,935.2015
789.7436,819.15753,811.0989,1039.9634
776.8498,807.47253,787.72894,778.86444
754.68866,800.2198,776.04395,490.76923
751.06226,809.0842,790.9524,576.1905
770.40295,829.6337,810.696,893.69965
785.31134,823.1868,813.5165,1032.3077
772.01465,793.7729,789.34064,794.57874
738.97437,769.19415,760.7326,473.04028
729.304,776.4469,765.9707,514.94507
754.68866,798.20514,792.1612,842.52747
770.0,807.0696,799.41394,1015.38464
766.77655,807.47253,785.7143,834.4689
749.0476,784.90845,759.12085,506.48352
744.61536,779.67035,761.53845,490.76923
768.3883,802.6374,797.3993,828.022
787.326,801.4286,808.68134,1042.7839
786.52014,805.4579,792.5641,890.4762
761.9414,795.38464,769.19415,556.4469
752.674,781.28204,772.01465,488.75458
780.07324,790.54944,798.20514,794.17584
796.99634,801.02563,813.1135,1041.978
798.60803,803.8461,801.8315,937.2161
776.04395,784.5055,775.64105,590.696
755.09155,778.46155,770.0,459.34067
776.4469,800.2198,796.1905,743.8095
787.326,807.47253,807.8755,1006.9231
784.10254,801.8315,797.3993,950.9158
765.56775,785.7143,778.0586,621.7216
740.18317,790.14655,767.1795,440.80585
752.674,802.23444,788.93774,695.8608
778.46155,788.93774,803.0403,980.32965
790.54944,790.14655,794.57874,959.3773
782.49084,778.0586,774.43225,652.3443
759.5238,770.40295,761.53845,441.2088
772.01465,784.90845,781.28204,661.2088
807.8755,797.3993,803.44324,971.8681
787.326,783.69965,778.46155,709.15753
760.32965,771.6117,761.13556,452.49084
760.7326,778.0586,784.10254,632.1978
778.46155,811.9048,808.2784,958.97437
786.1172,802.23444,803.44324,1031.0989
767.98535,761.9414,780.4762,746.2271
747.4359,764.35895,770.80585,458.93774
750.2564,780.87915,785.7143,590.696
764.7619,797.3993,805.8608,917.8755
778.46155,803.0403,810.696,1039.5604
812.71063,797.8022,803.44324,1005.31134
767.5824,793.7729,788.93774,794.57874
757.9121,774.83514,781.685,552.01465
785.7143,790.14655,808.2784,892.0879
792.96704,795.38464,813.5165,1051.6483
747.8388,780.4762,768.7912,476.26373
775.2381,796.1905,789.34064,828.022
747.8388,776.8498,765.9707,493.58975
737.76556,755.4945,771.6117,507.69232
761.13556,773.6264,793.7729,841.7216
778.46155,786.52014,803.0403,1044.3956
771.6117,781.28204,788.5348,878.7912
751.06226,767.5824,765.56775,542.74725
747.8388,767.98535,769.19415,496.41025
775.64105,788.1319,798.60803,830.0366
788.1319,785.7143,807.0696,1056.4835
782.8938,787.326,791.3553,914.2491
755.89746,780.87915,772.01465,578.20514
740.58606,782.8938,776.8498,493.58975
760.7326,790.14655,800.6227,798.20514
772.01465,773.6264,804.2491,1035.5311
775.2381,774.83514,796.5934,945.2747
762.74725,771.2088,780.07324,625.34796
742.6007,769.19415,773.22345,479.48718
754.2857,785.31134,796.5934,741.39197
778.86444,796.99634,813.1135,1021.02563
783.69965,797.3993,798.20514,985.56775
763.5531,779.2674,778.86444,651.9414
750.2564,770.0,772.01465,463.36996
759.12085,789.7436,790.14655,704.7253
808.68134,823.1868,820.7692,1035.1282
788.1319,815.12823,817.1429,1019.81683
772.01465,784.10254,786.9231,697.8755
746.2271,759.12085,770.0,460.54944
757.50916,782.8938,797.3993,667.25275
779.67035,797.3993,815.12823,981.13556
787.326,799.81683,813.1135,1031.0989
771.6117,791.3553,793.7729,734.94507
756.30035,781.28204,774.0293,468.20514
761.53845,786.9231,785.31134,626.1539
788.1319,800.6227,805.4579,952.9304
801.4286,806.6667,806.6667,1050.4396
787.72894,806.26373,788.5348,783.69965
759.92676,783.2967,767.5824,473.44324
764.35895,766.77655,782.0879,583.44324
789.7436,798.60803,809.4872,922.71063
801.4286,804.2491,803.8461,1055.2748
784.90845,778.0586,778.0586,810.293
754.2857,773.22345,763.5531,484.72528
756.7033,782.8938,782.8938,548.3883
791.75824,795.38464,810.696,1065.348
774.83514,782.0879,788.1319,867.9121
745.82416,765.56775,772.4176,517.3626
743.00366,781.685,786.1172,512.9304
767.5824,798.60803,803.44324,843.73627
783.69965,782.0879,799.81683,1056.4835
780.07324,775.2381,781.685,890.87915
780.4762,795.38464,812.71063,880.40295
759.12085,770.80585,763.1502,539.5238
750.65936,774.43225,771.6117,480.29303
771.6117,798.20514,789.7436,799.011
788.93774,801.8315,803.0403,1048.022
787.72894,788.93774,793.36993,927.5458
763.1502,778.46155,766.77655,566.9231
749.45056,773.22345,765.9707,455.31134
765.16486,786.52014,784.5055,750.2564
788.5348,816.7399,800.6227,1035.1282
792.5641,816.7399,793.36993,968.6447
764.7619,779.2674,763.95605,601.978
748.24176,769.59705,765.56775,433.15018
763.95605,789.34064,790.54944,708.7546
779.2674,802.23444,806.26373,1020.2198
789.34064,802.6374,802.23444,1002.49084
767.5824,784.90845,775.2381,661.2088
747.03296,796.99634,792.96704,680.9524
738.5714,775.64105,769.19415,458.13187
768.7912,805.05493,809.4872,984.7619
776.8498,790.54944,799.81683,1024.652
761.13556,793.36993,779.67035,718.022
736.1539,777.25275,763.95605,448.0586
740.989,765.56775,775.2381,629.3773
765.9707,782.49084,798.60803,964.61536
785.7143,793.36993,801.02563,1047.619
771.2088,785.7143,778.46155,747.03296
747.03296,780.4762,766.3736,456.52014
758.71796,791.3553,782.0879,614.0659
779.2674,794.17584,800.6227,937.2161
785.7143,795.78754,803.44324,1049.2307
772.4176,786.52014,787.326,793.7729
751.8681,780.4762,772.4176,471.02563
745.42126,796.5934,782.8938,563.2967
763.1502,792.1612,808.68134,913.44324
775.2381,770.0,816.337,1068.5714
764.35895,770.80585,798.60803,841.31866
738.1685,766.77655,775.64105,502.85715
735.34796,769.59705,785.7143,533.0769
753.8828,786.9231,811.50183,876.77655
766.3736,793.7729,816.337,1069.7803
765.56775,787.326,794.57874,890.87915
744.61536,772.01465,767.5824,537.1062
746.2271,779.2674,775.2381,506.48352
774.43225,799.41394,803.0403,846.1539
795.78754,820.7692,817.1429,1085.8975
792.1612,802.6374,794.17584,940.4396
762.74725,771.6117,766.77655,574.9817
756.30035,766.3736,769.19415,472.63736
772.01465,773.6264,789.34064,789.7436
791.75824,791.3553,806.26373,1061.7216
797.8022,796.5934,799.41394,958.97437
771.2088,778.46155,775.64105,605.6044
755.09155,770.0,768.3883,460.54944
768.7912,789.7436,796.5934,749.0476
788.1319,796.99634,814.3223,1041.978
784.90845,786.52014,796.99634,997.25275
764.7619,784.5055,772.01465,660.80585
755.4945,770.80585,771.6117,469.81686
761.53845,780.87915,811.0989,1043.9927
766.77655,791.3553,808.68134,1045.2014
749.85345,784.90845,786.1172,716.0073
755.4945,765.16486,792.96704,723.663
732.9304,767.1795,774.43225,471.8315
746.2271,780.87915,796.99634,680.9524
776.4469,796.1905,815.9341,1016.5934
792.1612,795.38464,812.3077,1074.6154
782.0879,782.8938,789.7436,755.09155
762.3443,775.64105,772.4176,465.3846
768.3883,801.4286,792.96704,646.30035
803.0403,808.68134,815.9341,997.6557
823.1868,797.3993,806.26373,1077.4359
797.8022,792.1612,777.6557,790.54944
761.53845,776.8498,765.56775,486.73993
759.5238,774.0293,786.1172,592.71063
777.6557,787.72894,810.293,931.5751
791.75824,803.0403,812.3077,1090.7325
779.2674,788.1319,792.5641,847.3626
749.85345,766.3736,769.59705,490.76923
751.4652,772.4176,781.28204,550.0
772.01465,780.4762,811.9048,902.96704
778.46155,795.38464,818.3516,1088.3151
775.64105,788.1319,799.81683,882.8205
749.0476,758.71796,774.83514,533.8828
737.76556,757.9121,776.8498,518.5714
772.4176,772.8205,796.1905,848.97437
786.52014,786.1172,807.0696,1091.5385
766.77655,782.0879,790.54944,925.12823
747.8388,772.4176,766.3736,538.315
776.8498,788.1319,807.47253,875.16486
794.17584,805.05493,814.7253,1074.2124
792.5641,790.9524,798.60803,956.55676
772.01465,788.93774,775.64105,603.5897
752.27106,774.43225,781.28204,526.63007
757.9121,776.4469,774.83514,482.71063
770.40295,766.77655,795.78754,774.43225
790.54944,789.7436,818.3516,1058.9011
794.57874,794.57874,805.05493,987.5824
772.4176,773.6264,769.59705,620.10986
757.1062,763.1502,765.56775,446.84982
771.2088,780.4762,796.1905,734.1392
794.57874,801.02563,816.7399,1051.2454
796.99634,799.41394,809.0842,1024.249
763.1502,773.6264,780.07324,664.43225
743.00366,766.77655,767.5824,452.89377
754.68866,795.78754,795.38464,703.91943
778.86444,787.326,804.65204,1042.381
775.64105,813.1135,814.3223,1016.99634
755.4945,764.35895,781.685,713.9927
735.34796,763.95605,769.59705,432.74725
750.2564,780.87915,794.57874,648.315
778.46155,794.9817,819.15753,1001.685
790.54944,797.8022,815.12823,1064.9451
775.64105,786.9231,787.72894,764.7619
758.315,767.1795,768.3883,458.93774
771.6117,778.46155,790.9524,605.6044
792.1612,792.5641,812.3077,957.3626
810.696,815.12823,814.3223,1090.7325
794.17584,805.4579,790.9524,813.91943
763.95605,764.7619,765.16486,475.05493
766.3736,785.7143,784.90845,575.78754
785.31134,806.6667,813.1135,931.978
797.8022,790.14655,809.4872,1087.9121
786.52014,779.67035,785.7143,846.1539
769.59705,776.04395,772.01465,506.0806
766.3736,782.49084,781.685,538.71796
780.87915,797.3993,803.44324,886.4469
809.89014,809.4872,816.7399,1102.0146
802.23444,794.17584,799.011,898.1319
744.61536,775.2381,777.25275,510.1099
760.7326,786.52014,774.83514,534.2857
770.40295,771.2088,801.02563,846.1539
792.5641,792.5641,816.337,1089.1208
777.6557,785.31134,796.5934,938.8278
756.30035,767.5824,767.5824,563.2967
743.4066,780.07324,773.22345,476.66666
762.3443,790.54944,801.8315,803.44324
790.9524,794.57874,816.7399,1073.0037
794.57874,800.6227,803.8461,971.06226
770.80585,782.0879,770.40295,597.5458
752.674,775.2381,768.7912,452.49084
771.2088,813.1135,800.6227,765.56775
801.8315,824.3956,814.7253,1071.7949
806.26373,799.81683,802.23444,1005.31134
775.2381,780.87915,772.8205,629.3773
759.12085,774.43225,764.35895,431.53845
780.4762,793.36993,794.57874,709.9634
802.6374,808.68134,815.12823,1040.7693
797.3993,799.81683,805.05493,1033.9194
770.0,785.7143,779.2674,682.1612
749.45056,778.86444,769.19415,433.15018
787.326,794.9817,813.5165,1012.96704
789.34064,809.4872,809.89014,1064.1392
770.40295,790.9524,782.8938,745.0183
742.1978,756.7033,764.7619,448.86447
763.95605,779.67035,791.75824,666.04395
755.09155,769.19415,781.28204,633.00366
787.72894,792.5641,804.65204,983.95605
780.07324,780.4762,781.28204,785.7143
794.57874,792.96704,805.4579,1075.8242
757.1062,767.98535,763.5531,470.6227
761.13556,775.64105,780.87915,595.12823
788.1319,799.41394,805.4579,952.1245
802.6374,799.81683,809.89014,1092.7472
784.5055,797.8022,786.9231,829.6337
754.68866,796.5934,766.77655,487.94873
748.24176,777.6557,776.4469,543.1502
772.8205,779.2674,798.60803,895.31134
780.87915,782.49084,801.8315,1074.6154
760.7326,768.7912,782.8938,847.76556
740.18317,757.50916,764.35895,491.17215
740.18317,761.9414,774.0293,503.26007
763.95605,783.2967,805.05493,861.4652
783.69965,778.46155,791.75824,903.7729
757.9121,763.5531,765.9707,533.8828
751.4652,771.2088,774.0293,482.30768
778.0586,800.2198,802.6374,835.6777
802.6374,809.4872,813.91943,1097.5824
796.1905,789.7436,803.0403,963.00366
765.16486,758.71796,774.0293,587.8755
787.326,794.17584,813.5165,1084.2858
746.63007,747.8388,769.59705,469.81686
771.2088,770.0,799.41394,794.17584
792.1612,785.31134,815.9341,1078.6447
790.9524,785.7143,801.8315,1000.4762
753.47986,770.0,768.7912,450.4762
766.77655,784.5055,796.5934,746.63007
789.34064,799.011,808.68134,1064.1392
800.6227,819.5604,799.81683,1042.381
790.14655,799.81683,777.25275,680.9524
769.59705,761.13556,765.56775,437.17947
780.87915,775.2381,789.7436,690.2198
805.8608,800.6227,811.0989,1035.5311
809.4872,799.41394,804.65204,1053.2601
782.49084,765.9707,772.01465,700.293
777.25275,778.0586,774.83514,630.18317
748.24176,754.2857,753.8828,428.71796
753.47986,773.22345,780.4762,643.0769
788.93774,788.93774,809.0842,1004.5055
800.6227,788.93774,805.8608,1075.0183
780.07324,775.64105,779.2674,757.9121
756.30035,778.0586,767.1795,461.35532
762.74725,781.28204,787.326,619.304
786.9231,780.4762,808.2784,967.4359
793.7729,788.5348,807.8755,1081.8682
777.25275,779.67035,783.2967,802.23444
757.1062,769.59705,767.98535,463.7729
766.77655,773.22345,784.5055,571.3553
788.93774,799.81683,809.4872,948.0952
793.36993,806.6667,810.696,1102.8206
777.25275,781.28204,785.31134,848.5714
757.9121,769.59705,768.3883,505.67764
755.89746,776.04395,779.67035,546.77655
781.685,810.293,807.47253,902.5641
808.2784,817.1429,813.91943,1110.0732
792.1612,773.22345,783.2967,884.0293
756.7033,758.315,757.50916,506.48352
750.2564,771.2088,776.4469,492.78387
776.4469,790.9524,807.47253,850.58606
800.6227,799.41394,809.89014,1093.5531
790.14655,792.96704,791.75824,926.7399
747.4359,772.01465,774.0293,472.23444
774.43225,798.20514,802.23444,807.47253
798.60803,800.2198,815.9341,1077.8389
802.23444,800.2198,799.41394,962.6007
772.01465,787.326,772.4176,591.0989
756.7033,777.6557,772.8205,550.80585
745.42126,755.09155,764.7619,446.4469
789.34064,789.34064,811.50183,1063.3334
791.75824,791.75824,803.0403,1001.685
773.22345,776.4469,778.86444,644.68866
768.3883,767.98535,793.7729,761.53845
748.24176,762.3443,768.3883,444.43222
792.96704,801.02563,821.978,1060.5128
759.12085,780.87915,795.38464,725.6777
799.011,790.14655,809.0842,1038.7546
753.8828,775.64105,773.22345,451.28204
769.19415,797.8022,794.9817,697.47253
791.75824,789.34064,809.89014,1035.5311
771.2088,767.5824,776.8498,681.3553
800.6227,780.87915,806.26373,1070.1831
797.8022,778.86444,787.72894,747.03296
772.01465,771.6117,770.40295,471.42856
772.01465,783.2967,787.72894,651.9414
795.38464,792.5641,809.89014,992.4176
763.5531,776.4469,770.80585,468.20514
750.2564,771.6117,781.28204,595.9341
779.2674,808.68134,813.5165,961.79486
803.44324,811.9048,818.3516,1105.238
789.7436,781.28204,786.1172,826.0073
758.71796,776.04395,767.98535,484.72528
749.85345,767.5824,779.2674,556.8498
778.86444,775.64105,805.4579,917.47253
801.02563,793.36993,810.293,1102.8206
800.6227,795.38464,805.8608,1083.4799
791.3553,796.99634,786.52014,783.2967
778.0586,782.8938,782.0879,868.315
748.24176,761.9414,764.7619,503.663
752.27106,765.16486,776.04395,521.39197
775.2381,784.5055,797.8022,877.5824
789.7436,800.2198,815.5311,1101.2087
775.64105,803.8461,803.44324,917.8755
776.8498,786.1172,808.68134,854.61536
753.47986,773.22345,772.01465,541.53845
799.41394,790.54944,822.7839,1106.8499
790.9524,792.96704,801.8315,963.8095
759.5238,786.52014,776.04395,574.57874
750.2564,758.71796,774.43225,498.02197
745.42126,760.32965,775.64105,466.99634
771.6117,778.46155,803.0403,798.60803
796.99634,798.60803,821.5751,1077.8389
790.9524,794.57874,806.6667,985.56775
772.01465,782.8938,779.2674,617.28937
762.3443,788.1319,779.67035,464.1758
766.3736,790.14655,798.60803,752.674
784.5055,780.4762,807.47253,1051.6483
794.17584,786.1172,803.0403,1018.20514
768.7912,775.2381,780.87915,659.59705
753.8828,770.0,775.64105,450.4762
775.64105,786.52014,796.1905,715.6044
796.5934,801.8315,811.0989,1044.3956
794.57874,803.0403,805.4579,1055.2748
771.2088,774.83514,776.4469,709.5604
747.8388,753.8828,764.35895,440.80585
768.3883,773.22345,792.1612,663.6264
800.6227,804.2491,815.5311,1028.2784
798.20514,795.38464,811.0989,1089.1208
780.87915,760.32965,781.28204,763.1502
763.1502,752.27106,767.5824,458.13187
761.13556,764.35895,787.326,620.5128
788.5348,786.52014,813.1135,987.1795
804.65204,796.99634,815.5311,1102.8206
780.07324,781.28204,783.2967,802.23444
750.65936,767.5824,757.9121,462.16116
756.30035,778.0586,778.46155,585.8608
787.326,794.57874,808.68134,963.4066
801.4286,800.2198,812.3077,1114.9084
782.8938,793.36993,786.1172,852.1978
754.68866,769.59705,762.3443,495.6044
752.674,749.0476,774.43225,539.12085
767.98535,767.5824,799.011,895.7143
792.1612,793.7729,809.4872,1097.5824
786.9231,794.17584,795.38464,884.0293
749.85345,775.2381,769.19415,502.85715
752.27106,778.0586,779.2674,493.99268
783.69965,797.8022,807.0696,863.0769
798.20514,805.8608,815.5311,1100.8059
793.7729,802.6374,798.60803,922.71063
767.5824,782.0879,772.8205,537.50916
747.8388,786.52014,778.0586,471.8315
766.3736,819.5604,801.8315,811.50183
795.38464,812.71063,808.68134,1086.3004
801.8315,792.5641,797.8022,969.45056
768.7912,781.685,774.83514,579.81683
754.68866,795.38464,799.41394,766.3736
737.3626,778.46155,771.6117,447.25275
775.64105,809.4872,811.50183,1066.9597
757.9121,786.52014,777.6557,624.1392
735.7509,783.69965,769.59705,426.30035
753.47986,794.9817,791.3553,699.89014
782.49084,822.381,812.3077,1041.1721
785.7143,815.9341,802.6374,1032.7106
767.98535,781.685,777.6557,655.56775
749.45056,779.2674,770.0,415.42123
756.7033,798.20514,792.96704,677.72894
776.4469,807.0696,818.7546,1027.4725
779.2674,794.9817,812.3077,1056.8865
775.2381,803.0403,798.60803,994.43225
755.09155,783.2967,781.28204,702.71063
734.1392,770.40295,770.0,413.00366
742.6007,780.87915,788.93774,623.3333
770.80585,802.6374,811.9048,980.7326
788.5348,807.8755,816.337,1072.1978
763.95605,807.47253,790.14655,762.74725
736.55676,782.0879,762.74725,433.15018
743.00366,772.8205,778.46155,579.41394
772.8205,793.7729,808.68134,955.34796
787.72894,797.8022,810.293,1087.1062
770.80585,788.93774,791.3553,799.41394
741.79486,768.3883,774.0293,444.0293
736.9597,777.6557,783.2967,533.47986
788.1319,797.3993,814.3223,1096.3737
767.98535,792.96704,811.0989,917.8755
774.0293,792.5641,789.7436,842.1245
745.82416,772.8205,767.5824,472.63736
734.5421,788.5348,778.0586,504.8718
759.5238,799.41394,809.0842,887.25275
782.49084,781.685,813.91943,1098.7913
770.0,770.80585,795.38464,890.07324
751.06226,753.8828,767.5824,511.3187
750.2564,761.53845,768.7912,477.0696
765.9707,782.49084,801.02563,832.4542
789.34064,793.7729,815.12823,1099.597
792.96704,784.10254,794.9817,954.94507
761.53845,772.01465,763.1502,556.8498
744.21246,770.0,763.1502,455.31134
776.4469,781.685,792.96704,803.8461
805.8608,811.50183,810.293,1106.4469
799.41394,792.1612,797.3993,997.25275
770.80585,758.315,772.4176,601.1722
747.4359,757.1062,768.3883,439.19415
767.1795,767.5824,794.57874,745.42126
801.4286,785.31134,813.91943,1065.751
807.0696,790.9524,806.6667,1019.81683
771.2088,770.40295,778.46155,637.03296
749.45056,761.9414,765.9707,417.83884
772.01465,775.64105,790.14655,697.0696
790.9524,786.1172,811.50183,1041.978
799.41394,789.7436,805.05493,1050.8425
777.25275,784.5055,778.0586,692.23444
747.8388,776.04395,762.3443,430.32968
759.92676,766.77655,782.8938,661.2088
779.67035,766.3736,803.8461,1009.34064
786.1172,773.6264,805.4579,1067.7656
778.46155,775.64105,789.34064,751.06226
758.315,764.35895,767.98535,452.08792
764.35895,767.5824,779.67035,625.34796
795.78754,790.54944,800.6227,1081.4652
786.52014,777.6557,781.685,789.7436
769.19415,767.1795,769.19415,471.8315
769.19415,786.1172,784.5055,591.50183
789.7436,794.17584,803.0403,992.4176
806.26373,807.8755,808.68134,955.34796
824.3956,794.57874,815.9341,1099.1941
800.6227,784.5055,795.38464,841.31866
774.43225,766.3736,765.16486,480.69598
770.80585,771.2088,775.2381,539.5238
796.99634,794.57874,806.26373,911.02563
806.26373,802.23444,811.0989,1092.7472
793.7729,798.60803,785.7143,868.315
773.22345,780.07324,763.1502,503.26007
763.95605,776.4469,772.8205,494.79852
780.87915,792.1612,793.36993,849.3773
800.6227,806.6667,803.44324,1091.1355
793.7729,802.6374,790.9524,921.9048
763.5531,767.98535,766.3736,538.315
752.27106,761.53845,768.7912,465.78754
773.6264,781.685,797.3993,813.91943
796.99634,802.23444,813.91943,1088.3151
792.96704,801.02563,799.41394,951.31866
760.7326,766.3736,763.95605,572.96704
