eeg_1,eeg_2,eeg_3,eeg_4
777.25275,767.1795,821.978,796.1905
788.93774,772.01465,829.6337,805.4579
781.28204,778.86444,834.0659,789.7436
776.8498,776.4469,829.2308,804.65204
777.25275,774.43225,830.4396,818.3516
775.64105,773.6264,819.15753,792.96704
773.22345,773.22345,818.3516,809.0842
774.83514,774.43225,825.6044,801.4286
784.10254,773.22345,823.1868,814.7253
784.90845,772.8205,827.619,814.7253
770,778.0586,828.022,808.68134
782.0879,775.2381,825.2015,801.8315
788.1319,770.80585,819.9634,815.5311
774.83514,779.2674,820.3663,807.0696
764.7619,775.2381,828.4249,784.10254
762.3443,767.1795,825.6044,795.78754
773.6264,774.43225,821.978,805.05493
781.685,782.49084,828.4249,800.2198
782.0879,782.8938,830.0366,792.96704
772.01465,780.87915,828.4249,803.8461
757.1062,776.8498,823.9927,801.4286
771.2088,775.2381,822.381,803.0403
801.4286,780.4762,812.71063,801.8315
783.2967,776.4469,813.5165,791.3553
761.9414,775.2381,825.6044,798.60803
777.25275,785.7143,822.381,795.38464
788.5348,784.90845,816.7399,793.36993
786.9231,774.0293,819.5604,803.0403
782.49084,776.8498,817.5458,801.02563
780.4762,776.4469,814.7253,805.05493
797.3993,784.5055,815.9341,828.4249
811.0989,794.17584,817.9487,824.3956
792.1612,787.326,820.3663,790.54944
786.9231,782.8938,811.50183,788.5348
803.0403,783.69965,807.0696,819.5604
807.47253,788.1319,812.3077,834.0659
794.57874,784.5055,812.3077,799.41394
788.93774,784.5055,811.50183,777.25275
793.7729,786.52014,812.3077,801.4286
788.5348,776.8498,814.7253,804.65204
792.96704,775.64105,810.696,813.1135
803.44324,793.7729,803.8461,823.1868
798.60803,803.0403,806.26373,814.3223
794.57874,799.41394,807.47253,794.9817
780.07324,798.60803,811.9048,795.38464
784.10254,795.38464,811.50183,813.1135
799.41394,792.5641,801.02563,818.3516
796.5934,794.9817,804.2491,815.12823
777.6557,794.17584,806.26373,784.5055
779.67035,795.38464,803.44324,787.72894
801.4286,796.5934,796.99634,817.1429
799.81683,796.1905,796.5934,803.8461
789.34064,793.36993,800.6227,774.0293
787.72894,790.54944,798.20514,786.52014
793.7729,796.1905,792.96704,793.36993
792.5641,798.60803,792.5641,797.3993
798.60803,801.02563,801.4286,817.5458
799.011,795.38464,798.60803,803.0403
792.5641,794.17584,791.75824,799.41394
793.7729,803.0403,792.1612,799.41394
796.1905,804.65204,795.78754,798.20514
794.57874,806.6667,792.96704,802.6374
786.52014,804.2491,792.1612,793.7729
787.326,799.011,798.60803,793.7729
792.96704,802.23444,800.6227,795.38464
790.54944,808.68134,796.5934,810.696
786.52014,813.91943,788.5348,803.8461
780.07324,813.1135,790.9524,781.685
780.87915,815.12823,790.9524,770
783.2967,814.3223,781.28204,773.22345
789.7436,813.91943,784.10254,792.1612
785.31134,813.91943,792.5641,794.9817
775.64105,811.0989,791.3553,792.5641
774.43225,820.7692,788.1319,771.2088
786.9231,825.2015,786.1172,779.67035
790.54944,820.3663,785.7143,790.9524
784.90845,821.5751,786.9231,794.17584
778.46155,811.0989,788.5348,787.72894
779.2674,811.50183,782.49084,779.67035
791.75824,824.3956,779.67035,784.90845
778.86444,823.9927,783.69965,782.8938
765.9707,823.9927,781.28204,778.46155
784.5055,830.4396,780.4762,772.8205
797.8022,823.1868,778.86444,769.59705
788.93774,815.9341,782.8938,775.64105
793.7729,826.4103,788.93774,798.60803
794.57874,826.0073,783.69965,807.8755
778.86444,818.7546,785.7143,810.696
789.7436,828.8278,790.14655,800.2198
797.8022,835.2747,788.5348,785.31134
791.75824,828.8278,783.69965,790.54944
795.78754,828.8278,785.31134,788.93774
788.5348,827.2161,788.1319,796.5934
772.4176,828.022,778.46155,786.9231
784.5055,832.4542,777.25275,765.9707
774.43225,832.8571,779.67035,772.01465
790.14655,832.0513,775.2381,779.67035
783.2967,827.2161,784.90845,803.0403
778.46155,825.2015,780.07324,782.49084
772.4176,819.9634,772.01465,767.1795
780.4762,819.9634,772.01465,767.5824
799.41394,832.4542,767.1795,788.5348
809.89014,834.4689,765.16486,799.81683
793.7729,821.5751,776.4469,790.54944
768.7912,808.68134,779.2674,773.22345
776.8498,807.0696,770.40295,775.64105
794.17584,814.7253,767.98535,794.9817
797.3993,816.7399,769.59705,796.1905
788.1319,816.337,773.6264,787.72894
796.99634,826.4103,773.22345,783.2967
806.6667,822.7839,776.4469,784.5055
803.8461,819.15753,780.4762,801.8315
795.38464,815.12823,780.87915,804.65204
786.9231,808.68134,785.31134,799.41394
799.011,809.0842,787.72894,801.4286
799.011,816.337,786.9231,782.49084
790.9524,820.3663,787.326,782.0879
794.57874,816.7399,789.7436,806.26373
786.1172,814.7253,792.96704,803.44324
783.2967,813.91943,793.7729,792.5641
794.17584,809.4872,793.7729,777.25275
787.72894,811.9048,792.5641,786.1172
785.31134,823.1868,783.69965,799.41394
801.4286,827.2161,784.90845,803.0403
794.9817,815.5311,792.96704,790.14655
783.2967,804.65204,788.5348,772.4176
794.17584,809.0842,787.326,789.34064
790.14655,811.50183,788.93774,801.02563
772.01465,813.1135,791.75824,780.4762
768.7912,813.5165,789.7436,760.32965
784.5055,814.7253,782.49084,783.69965
782.8938,814.7253,784.90845,799.011
770.80585,811.9048,793.7729,795.38464
780.87915,817.9487,801.4286,797.3993
790.14655,819.9634,791.3553,794.17584
788.93774,811.9048,795.38464,803.8461
801.8315,813.5165,801.02563,823.1868
790.54944,812.71063,786.9231,792.5641
786.9231,804.65204,801.02563,788.1319
809.89014,813.91943,805.4579,818.7546
772.01465,806.26373,799.011,775.64105
776.8498,819.15753,798.20514,796.1905
784.10254,813.91943,796.5934,808.2784
792.96704,805.4579,796.99634,806.6667
793.36993,806.26373,793.7729,807.0696
796.5934,811.0989,794.17584,795.38464
794.9817,809.0842,794.57874,792.96704
786.1172,802.23444,797.8022,796.5934
796.99634,807.0696,795.78754,801.4286
803.44324,809.0842,792.5641,809.89014
803.44324,809.0842,795.38464,803.44324
804.2491,812.3077,796.1905,788.93774
786.52014,806.26373,798.60803,788.93774
783.2967,801.4286,798.20514,786.1172
791.75824,805.8608,797.3993,784.10254
786.1172,800.6227,797.8022,790.9524
787.72894,801.8315,796.99634,798.60803
787.326,807.8755,796.5934,797.3993
784.10254,800.6227,792.5641,788.5348
784.5055,797.3993,788.93774,791.3553
792.96704,802.6374,785.7143,789.7436
804.2491,809.89014,790.54944,800.6227
788.5348,805.8608,799.81683,809.0842
780.87915,798.60803,805.05493,810.696
794.9817,805.8608,802.23444,811.9048
799.41394,814.7253,806.26373,804.65204
794.9817,805.8608,805.05493,798.60803
800.2198,805.8608,800.2198,814.7253
792.96704,809.0842,801.8315,809.4872
791.75824,806.6667,791.3553,804.65204
807.8755,805.4579,796.5934,813.1135
808.68134,806.6667,801.02563,806.26373
804.2491,812.3077,811.9048,796.5934
792.1612,805.8608,801.8315,825.6044
794.17584,808.2784,790.9524,785.7143
793.7729,806.6667,804.2491,816.7399
792.96704,799.011,794.9817,811.9048
803.8461,801.4286,800.2198,808.2784
794.17584,802.6374,803.0403,797.3993
776.8498,797.3993,793.36993,807.47253
788.1319,798.20514,794.57874,810.696
799.41394,802.23444,794.57874,796.99634
791.75824,799.41394,794.17584,792.96704
803.0403,797.3993,796.99634,788.5348
793.36993,804.2491,799.81683,802.23444
792.5641,802.6374,799.011,806.6667
799.011,797.8022,803.0403,790.54944
790.54944,793.7729,807.0696,799.81683
790.9524,790.14655,807.0696,804.65204
787.326,798.20514,807.47253,811.0989
794.17584,805.4579,802.23444,807.47253
795.38464,803.0403,796.5934,785.7143
787.326,794.57874,798.20514,790.14655
785.31134,794.57874,800.6227,801.02563
790.54944,799.011,803.44324,796.99634
795.38464,797.8022,797.8022,790.9524
798.20514,797.8022,790.14655,782.8938
787.72894,800.2198,797.3993,779.67035
788.93774,802.23444,806.6667,788.5348
804.2491,807.8755,805.4579,818.7546
792.1612,802.6374,798.20514,800.2198
778.46155,796.1905,801.4286,756.7033
786.1172,800.6227,796.99634,794.17584
790.9524,800.2198,799.41394,770.40295
781.685,797.3993,801.02563,803.0403
787.326,797.8022,790.14655,785.31134
784.5055,805.8608,786.52014,775.2381
782.8938,805.05493,791.3553,788.1319
784.90845,804.2491,800.6227,792.5641
780.07324,807.0696,808.68134,797.3993
776.8498,802.23444,808.2784,805.4579
780.07324,801.8315,804.2491,790.9524
778.46155,805.05493,801.8315,785.31134
785.7143,805.05493,805.4579,799.81683
793.36993,803.0403,803.0403,809.89014
789.34064,800.2198,799.81683,807.47253
785.7143,806.26373,795.38464,792.5641
790.14655,805.05493,789.7436,778.0586
788.5348,800.2198,794.9817,796.5934
780.07324,799.011,796.1905,794.9817
780.87915,797.8022,793.7729,780.87915
786.52014,798.20514,789.7436,805.05493
786.52014,793.7729,789.34064,794.57874
785.7143,786.52014,790.9524,770
784.90845,792.5641,794.57874,794.17584
784.90845,799.81683,801.02563,818.3516
785.31134,799.41394,797.3993,779.2674
776.4469,803.0403,802.6374,783.2967
791.75824,803.0403,802.6374,805.05493
786.52014,805.05493,807.47253,796.1905
797.8022,799.81683,799.41394,795.38464
792.1612,799.011,797.8022,780.07324
789.7436,805.4579,793.36993,782.8938
803.0403,813.5165,792.1612,812.71063
805.8608,809.89014,795.78754,826.0073
796.5934,799.41394,799.41394,797.8022
798.60803,813.1135,801.02563,811.50183
795.38464,813.1135,804.2491,777.6557
805.4579,806.6667,804.2491,782.8938
813.5165,813.5165,801.4286,806.26373
810.696,820.7692,794.9817,801.02563
823.1868,826.8132,794.57874,811.0989
817.1429,820.3663,788.1319,799.41394
809.4872,802.6374,792.96704,782.49084
805.05493,801.4286,801.8315,790.14655
793.7729,803.44324,796.5934,800.6227
791.3553,807.8755,790.14655,798.60803
788.1319,816.337,785.7143,788.5348
789.7436,807.47253,789.34064,784.5055
791.3553,807.47253,792.5641,787.72894
787.326,797.8022,786.9231,785.7143
791.75824,803.8461,787.326,777.6557
791.75824,801.8315,790.54944,790.9524
793.7729,807.0696,787.72894,773.6264
785.7143,806.6667,799.81683,801.4286
780.87915,807.8755,796.99634,795.38464
784.5055,802.23444,789.34064,782.8938
789.34064,804.2491,788.5348,792.5641
779.67035,803.8461,796.1905,782.49084
779.2674,803.8461,800.6227,801.8315
784.10254,809.0842,796.99634,788.93774
793.7729,815.12823,789.34064,762.3443
801.02563,816.337,789.7436,772.01465
790.54944,807.47253,800.2198,784.10254
785.31134,803.8461,806.26373,784.5055
794.17584,815.9341,803.44324,796.5934
796.5934,810.293,792.1612,792.5641
786.9231,801.4286,790.9524,794.9817
785.31134,803.8461,795.38464,788.1319
780.87915,803.44324,793.7729,786.9231
777.25275,809.0842,793.36993,813.1135
790.9524,819.5604,795.78754,811.0989
786.52014,807.47253,797.3993,789.7436
777.25275,796.5934,788.93774,771.2088
783.2967,804.65204,787.326,780.4762
787.72894,810.293,789.7436,794.57874
801.02563,805.4579,789.7436,805.8608
801.02563,805.8608,792.5641,802.6374
791.3553,806.6667,782.49084,788.5348
794.17584,801.8315,780.87915,803.44324
788.93774,798.20514,796.99634,814.3223
786.1172,796.99634,797.8022,797.3993
786.52014,796.1905,783.2967,786.52014
785.7143,798.60803,780.4762,789.7436
782.49084,800.2198,784.5055,788.1319
781.28204,792.96704,787.326,793.7729
794.57874,799.41394,787.72894,806.6667
794.57874,807.8755,789.7436,800.2198
790.14655,801.02563,790.9524,788.1319
789.7436,803.8461,791.3553,778.86444
790.9524,806.6667,790.9524,792.5641
803.8461,807.8755,796.5934,807.47253
803.44324,807.8755,790.54944,799.41394
796.99634,810.696,780.4762,786.1172
794.9817,810.293,791.75824,787.72894
793.7729,798.60803,794.57874,807.0696
805.05493,799.41394,794.17584,815.5311
799.011,805.8608,803.8461,811.0989
787.326,805.05493,803.8461,792.5641
783.2967,799.81683,798.20514,790.14655
784.90845,798.20514,796.5934,799.41394
786.52014,799.011,798.20514,801.02563
782.0879,804.2491,790.9524,794.9817
805.8608,804.2491,790.9524,793.36993
814.7253,798.60803,800.2198,792.96704
800.2198,804.65204,800.6227,800.2198
789.34064,800.2198,805.8608,807.0696
785.7143,791.3553,801.02563,805.05493
799.011,792.5641,790.54944,799.81683
801.8315,794.9817,792.96704,799.41394
796.1905,798.60803,792.96704,797.3993
798.60803,796.99634,792.1612,806.6667
809.0842,796.99634,793.36993,817.1429
808.68134,801.8315,797.8022,798.20514
795.78754,802.23444,803.8461,786.9231
796.1905,799.41394,791.3553,803.44324
795.38464,798.60803,797.8022,797.3993
782.49084,799.011,797.3993,798.20514
782.8938,799.81683,800.2198,801.4286
790.54944,805.8608,799.011,789.7436
792.96704,808.68134,802.6374,779.2674
790.54944,806.26373,804.65204,794.9817
792.5641,805.05493,796.99634,814.7253
796.99634,801.8315,793.36993,801.8315
798.20514,797.8022,796.1905,785.7143
805.8608,803.44324,790.54944,794.9817
804.65204,804.2491,790.9524,803.0403
801.8315,797.8022,792.1612,809.4872
805.8608,793.36993,790.14655,798.20514
805.8608,799.011,795.78754,788.1319
804.2491,796.5934,792.1612,791.3553
809.89014,792.96704,784.10254,809.0842
815.9341,799.011,791.3553,827.2161
817.1429,790.9524,795.38464,819.5604
806.26373,793.36993,791.75824,798.60803
791.3553,794.17584,795.78754,785.31134
793.36993,786.9231,797.3993,810.293
801.4286,793.36993,796.5934,824.7985
795.78754,800.6227,800.6227,810.696
787.326,798.20514,799.41394,805.8608
788.1319,794.9817,799.011,801.8315
788.5348,799.011,801.4286,788.1319
785.7143,794.9817,798.20514,796.1905
794.17584,797.8022,800.6227,793.7729
793.7729,794.57874,795.38464,790.54944
790.9524,796.1905,803.44324,774.43225
794.57874,803.0403,807.47253,790.54944
796.5934,801.8315,802.6374,807.0696
799.011,792.96704,800.2198,821.1722
808.68134,792.96704,804.2491,815.9341
807.0696,795.38464,800.2198,790.9524
810.696,795.38464,793.7729,813.91943
807.0696,792.96704,796.1905,833.663
802.23444,789.7436,794.57874,815.12823
812.3077,790.14655,794.9817,812.3077
808.68134,792.1612,798.20514,795.78754
811.0989,794.57874,794.17584,793.36993
821.978,804.65204,790.14655,822.7839
810.293,801.02563,796.5934,837.6923
795.78754,796.99634,803.44324,828.4249
799.011,799.81683,797.3993,795.78754
798.20514,799.81683,801.8315,821.978
806.26373,802.6374,803.44324,799.81683
817.1429,803.0403,806.26373,819.9634
803.8461,799.41394,793.36993,807.8755
790.14655,799.011,796.1905,792.5641
793.7729,807.0696,802.6374,796.1905
792.96704,811.9048,806.26373,801.4286
793.36993,807.8755,808.68134,803.44324
790.9524,803.8461,803.8461,807.47253
782.49084,807.47253,804.2491,784.90845
786.52014,809.0842,808.2784,786.9231
785.7143,802.23444,803.44324,799.011
788.93774,803.8461,796.5934,793.36993
791.75824,805.05493,800.2198,795.78754
787.72894,798.60803,799.41394,788.1319
795.78754,799.011,796.5934,784.10254
785.31134,798.20514,802.23444,796.99634
796.1905,799.41394,806.26373,809.0842
803.8461,796.1905,805.05493,800.2198
776.8498,790.14655,797.8022,783.2967
778.46155,799.41394,789.7436,780.07324
797.3993,799.81683,792.96704,792.96704
796.5934,792.96704,798.60803,806.6667
799.81683,796.1905,796.99634,806.6667
801.8315,802.23444,804.2491,793.36993
793.36993,804.2491,805.8608,780.07324
796.99634,803.44324,796.1905,786.52014
793.36993,791.75824,794.57874,809.89014
789.34064,788.5348,793.7729,810.696
794.9817,796.1905,787.72894,795.78754
790.54944,792.1612,788.5348,792.5641
791.75824,794.17584,794.9817,796.5934
805.8608,805.05493,798.20514,812.3077
801.02563,803.44324,797.8022,803.0403
790.9524,799.41394,799.81683,782.0879
790.14655,803.0403,800.6227,785.7143
806.26373,806.6667,803.44324,791.3553
804.2491,811.9048,807.8755,817.1429
792.96704,812.3077,806.6667,813.5165
792.5641,802.6374,799.81683,778.46155
808.2784,809.89014,805.4579,804.65204
809.4872,799.81683,805.4579,809.4872
807.8755,804.2491,806.6667,807.47253
808.2784,803.0403,804.2491,819.15753
807.47253,804.2491,807.8755,811.0989
806.26373,809.89014,803.44324,821.978
808.68134,811.50183,806.6667,821.5751
803.8461,811.9048,811.0989,821.978
808.2784,808.68134,805.05493,812.71063
811.50183,806.6667,817.5458,809.89014
786.1172,801.8315,804.2491,801.4286
799.011,799.81683,805.4579,803.44324
781.28204,799.81683,800.6227,806.26373
795.78754,796.5934,806.26373,810.696
792.96704,799.41394,805.05493,796.1905
788.1319,808.2784,802.23444,774.0293
792.96704,807.8755,810.696,782.8938
791.3553,799.011,811.0989,805.05493
789.7436,800.2198,806.26373,795.78754
787.72894,805.05493,805.8608,795.38464
796.99634,811.0989,810.696,805.8608
797.3993,809.4872,809.4872,797.3993
790.54944,796.1905,810.696,806.6667
794.17584,797.8022,816.337,813.5165
794.9817,808.68134,809.4872,796.5934
785.7143,803.44324,798.60803,783.2967
778.86444,799.81683,803.0403,787.326
784.5055,801.4286,811.0989,802.6374
794.17584,806.26373,790.14655,791.3553
798.20514,801.02563,811.0989,812.3077
786.52014,806.6667,790.9524,787.72894
792.5641,803.44324,799.011,798.20514
817.5458,801.02563,793.7729,808.68134
795.78754,806.6667,789.34064,802.6374
798.60803,809.89014,782.8938,786.1172
809.89014,799.81683,787.72894,813.5165
799.81683,807.0696,778.86444,788.93774
794.17584,792.1612,776.8498,792.5641
797.3993,799.011,801.8315,808.2784
797.8022,795.38464,772.4176,809.89014
803.0403,801.8315,777.25275,810.696
791.75824,794.17584,782.8938,790.54944
789.34064,797.8022,785.7143,785.7143
794.9817,811.9048,784.90845,802.23444
791.3553,809.89014,780.87915,809.4872
780.87915,801.4286,785.31134,792.1612
777.25275,797.3993,786.1172,780.4762
786.52014,799.81683,793.36993,781.685
791.75824,807.8755,802.23444,796.1905
788.5348,813.1135,792.5641,804.65204
783.2967,808.68134,789.34064,803.8461
796.1905,808.68134,799.41394,789.7436
796.5934,806.6667,793.36993,776.04395
786.52014,797.3993,793.36993,803.8461
787.72894,800.6227,793.36993,793.7729
783.69965,801.02563,785.7143,796.1905
789.7436,795.78754,794.17584,792.5641
794.9817,786.9231,780.87915,803.0403
793.36993,790.9524,783.2967,807.0696
790.54944,794.57874,790.54944,792.96704
788.5348,784.10254,776.8498,790.54944
787.72894,788.1319,782.8938,794.9817
795.78754,790.14655,784.5055,792.1612
800.2198,793.7729,791.3553,796.99634
807.8755,797.8022,787.72894,803.8461
805.05493,798.20514,787.72894,802.23444
793.7729,790.54944,784.5055,795.38464
798.20514,795.38464,783.69965,787.326
797.3993,805.4579,792.96704,796.5934
793.7729,811.50183,793.7729,813.91943
804.2491,812.3077,799.011,809.4872
798.60803,808.68134,799.41394,784.10254
790.54944,808.68134,797.8022,782.0879
788.93774,809.0842,800.2198,797.8022
792.96704,806.26373,796.1905,808.68134
803.0403,800.6227,793.36993,795.38464
797.8022,801.8315,793.7729,791.3553
791.75824,806.26373,789.34064,805.4579
795.78754,800.2198,799.81683,811.0989
796.99634,795.38464,805.8608,828.8278
798.20514,801.02563,796.99634,815.5311
803.0403,796.1905,793.7729,792.1612
803.44324,793.7729,794.17584,782.0879
799.81683,801.4286,794.17584,797.8022
801.8315,799.81683,793.36993,819.5604
808.2784,795.78754,796.5934,821.978
798.20514,794.9817,794.57874,809.0842
789.34064,794.9817,796.99634,795.38464
796.1905,800.2198,798.60803,806.6667
794.57874,798.60803,792.5641,808.2784
792.96704,787.72894,797.3993,796.99634
791.3553,800.6227,793.36993,793.36993
786.1172,789.7436,792.96704,794.9817
794.17584,804.65204,793.36993,784.10254
799.011,798.60803,795.38464,809.0842
796.1905,803.44324,795.38464,826.0073
794.9817,802.23444,795.78754,803.44324
782.49084,795.38464,793.7729,785.31134
781.685,794.9817,793.7729,784.10254
795.38464,798.60803,794.17584,800.2198
797.3993,801.02563,780.87915,811.9048
786.9231,799.41394,776.8498,804.65204
780.07324,799.41394,780.4762,799.41394
785.7143,803.0403,783.2967,792.96704
792.96704,808.2784,794.17584,812.3077
794.17584,801.02563,792.96704,825.6044
793.36993,796.99634,785.31134,805.05493
786.9231,802.23444,788.93774,804.2491
778.46155,796.1905,793.7729,807.0696
777.25275,796.99634,796.99634,805.4579
788.1319,804.65204,799.81683,815.12823
787.326,803.0403,798.20514,796.99634
781.685,800.6227,798.20514,778.0586
785.31134,797.8022,796.1905,784.90845
795.78754,813.1135,802.6374,818.7546
792.1612,800.6227,802.23444,804.65204
801.8315,815.12823,799.011,817.1429
796.1905,808.68134,809.4872,796.99634
780.87915,802.6374,807.8755,774.43225
782.8938,800.2198,805.8608,792.5641
782.8938,813.1135,813.91943,801.4286
787.326,816.337,816.337,797.8022
791.75824,806.6667,813.5165,793.7729
788.5348,807.8755,811.9048,779.2674
777.25275,809.0842,815.9341,786.52014
797.8022,802.6374,818.7546,813.5165
793.36993,801.8315,811.50183,790.54944
799.41394,805.4579,807.8755,790.9524
784.5055,804.65204,821.1722,814.7253
798.60803,796.5934,807.0696,822.381
800.2198,798.20514,804.2491,813.5165
797.8022,805.05493,811.9048,808.68134
795.38464,799.81683,807.47253,802.23444
787.72894,789.7436,806.6667,799.81683
794.57874,794.17584,809.89014,809.89014
815.9341,797.3993,807.0696,829.6337
813.5165,788.5348,802.23444,823.5897
799.81683,790.14655,793.36993,801.4286
803.44324,790.54944,790.54944,800.2198
805.4579,785.31134,797.3993,806.26373
802.6374,785.7143,806.6667,821.978
796.1905,778.0586,807.8755,805.4579
799.011,773.6264,805.4579,816.7399
805.4579,778.46155,801.4286,820.3663
793.36993,782.8938,796.5934,780.4762
793.7729,784.90845,799.41394,801.4286
799.011,791.75824,807.0696,824.7985
801.02563,799.41394,806.26373,815.12823
785.31134,786.1172,802.23444,788.1319
799.81683,790.14655,799.011,799.81683
800.6227,794.17584,804.65204,800.6227
809.4872,796.5934,807.8755,815.12823
799.41394,796.1905,806.6667,807.0696
793.36993,797.3993,801.4286,795.78754
789.34064,792.5641,809.4872,798.60803
793.36993,791.75824,803.8461,806.26373
784.10254,793.7729,807.47253,790.54944
790.54944,781.28204,801.4286,803.8461
802.23444,783.2967,798.60803,799.41394
794.17584,786.9231,797.3993,797.3993
788.93774,788.5348,798.60803,786.52014
801.02563,791.3553,799.81683,801.02563
798.60803,788.93774,803.0403,817.9487
800.6227,790.9524,805.05493,789.34064
798.20514,803.8461,815.5311,778.46155
788.1319,805.8608,810.696,798.60803
792.5641,799.41394,803.8461,808.2784
799.011,801.4286,808.2784,812.71063
794.57874,797.3993,803.0403,795.38464
788.93774,800.6227,799.81683,775.64105
794.9817,805.8608,803.8461,794.17584
795.78754,803.0403,808.68134,812.71063
792.1612,804.65204,812.71063,804.65204
791.3553,811.50183,812.71063,796.5934
784.90845,806.26373,803.0403,786.1172
782.8938,807.8755,805.05493,788.93774
778.86444,809.0842,807.0696,789.34064
796.1905,808.2784,809.0842,803.44324
808.68134,814.7253,813.1135,823.9927
784.10254,803.44324,820.7692,801.8315
790.14655,803.44324,821.5751,793.36993
786.52014,811.9048,821.1722,799.81683
774.0293,810.696,830.0366,802.6374
787.72894,805.05493,824.3956,801.4286
799.41394,813.91943,816.7399,789.7436
786.1172,814.3223,825.2015,778.46155
763.1502,801.02563,830.4396,777.6557
765.56775,800.6227,827.619,789.34064
786.1172,804.2491,832.4542,798.60803
786.9231,807.0696,832.0513,784.5055
777.25275,803.44324,819.5604,783.69965
782.8938,799.81683,824.3956,818.3516
783.69965,803.44324,836.4835,821.1722
774.83514,807.0696,835.6777,791.75824
778.86444,794.17584,833.2601,785.7143
770.80585,784.90845,833.663,780.4762
789.34064,807.8755,824.7985,790.54944
789.7436,797.8022,831.2454,784.5055
772.8205,791.75824,833.2601,801.4286
792.5641,801.8315,830.0366,811.50183
776.8498,786.1172,834.4689,774.43225
781.685,787.326,827.2161,782.8938
792.96704,791.75824,823.1868,804.65204
790.9524,797.3993,828.4249,809.0842
788.93774,796.1905,831.6484,796.5934
784.5055,785.7143,827.619,794.17584
794.17584,784.90845,828.4249,794.57874
788.93774,792.5641,827.619,790.14655
786.9231,794.17584,825.2015,802.23444
783.69965,789.34064,829.6337,803.8461
803.8461,800.2198,816.7399,792.1612
797.3993,798.60803,823.9927,802.23444
794.17584,794.17584,832.4542,801.8315
794.57874,797.8022,824.3956,798.60803
792.5641,809.89014,810.293,793.7729
780.07324,793.36993,824.7985,787.72894
792.5641,812.3077,813.5165,791.75824
775.64105,804.65204,820.7692,785.7143
772.01465,794.9817,819.9634,787.326
779.2674,796.1905,819.9634,797.8022
788.93774,799.41394,819.5604,792.96704
790.54944,802.23444,818.3516,784.90845
789.7436,802.23444,814.3223,799.41394
795.38464,794.57874,807.8755,802.6374
794.57874,804.2491,812.71063,793.36993
782.49084,799.011,808.2784,778.46155
776.04395,780.87915,804.2491,771.2088
781.685,788.93774,809.0842,778.86444
779.2674,797.8022,801.02563,788.1319
782.49084,800.6227,796.99634,796.99634
779.67035,801.8315,798.20514,778.0586
786.1172,802.23444,801.8315,781.685
793.36993,803.44324,807.47253,813.5165
795.78754,807.0696,804.2491,811.9048
799.81683,803.44324,806.6667,815.12823
796.5934,803.0403,812.3077,800.2198
788.1319,803.8461,801.4286,778.0586
786.1172,791.75824,798.60803,793.36993
784.90845,789.7436,805.4579,811.9048
790.9524,795.38464,807.8755,821.5751
799.011,799.41394,805.05493,804.65204
801.02563,803.8461,803.0403,782.8938
796.5934,796.1905,806.6667,795.38464
794.9817,791.3553,809.0842,813.1135
804.65204,796.1905,802.6374,815.12823
796.1905,792.5641,794.57874,804.2491
782.8938,786.9231,791.3553,778.0586
788.93774,794.57874,799.011,788.5348
787.72894,791.3553,799.011,807.47253
786.9231,787.326,793.36993,806.26373
788.93774,783.2967,793.36993,807.47253
783.69965,779.2674,795.38464,782.49084
782.0879,781.28204,791.75824,780.4762
788.5348,778.0586,785.31134,799.81683
795.78754,781.685,785.31134,795.78754
793.7729,787.72894,788.5348,786.9231
790.9524,790.14655,792.1612,790.14655
780.87915,788.93774,793.36993,786.9231
784.5055,794.9817,799.011,807.0696
788.5348,799.81683,802.23444,821.5751
793.36993,803.8461,806.26373,827.619
798.20514,801.4286,810.293,809.4872
796.5934,804.65204,804.65204,794.9817
798.20514,811.0989,801.8315,821.5751
800.6227,806.26373,811.0989,831.2454
796.99634,802.23444,812.3077,817.5458
784.5055,798.60803,806.6667,787.72894
777.6557,802.6374,808.2784,782.49084
782.49084,808.68134,806.6667,801.8315
788.5348,807.0696,804.65204,812.3077
789.7436,809.4872,803.8461,806.26373
789.7436,808.2784,797.8022,792.96704
781.685,799.41394,794.57874,796.5934
780.07324,796.1905,793.7729,812.71063
797.8022,800.6227,793.7729,816.7399
799.011,803.8461,803.44324,813.1135
791.3553,798.20514,803.44324,804.65204
801.4286,801.4286,805.4579,809.4872
798.60803,802.6374,806.26373,813.91943
798.20514,801.8315,794.57874,820.3663
799.011,803.0403,803.44324,834.0659
793.36993,796.99634,809.89014,816.337
790.9524,792.96704,801.02563,788.5348
784.10254,796.99634,796.5934,803.8461
790.14655,803.8461,802.23444,800.2198
789.7436,804.2491,799.41394,821.1722
774.83514,795.78754,804.2491,776.4469
787.72894,799.41394,802.23444,801.8315
786.9231,797.8022,803.8461,814.3223
778.0586,796.5934,805.4579,775.2381
786.9231,799.011,810.293,809.4872
786.9231,805.4579,805.4579,792.96704
785.7143,802.23444,802.23444,782.8938
792.1612,800.2198,807.47253,802.6374
794.17584,802.23444,811.9048,819.15753
778.86444,798.60803,811.50183,814.3223
783.2967,795.38464,809.4872,794.57874
788.1319,787.72894,815.12823,780.07324
792.1612,785.7143,811.50183,799.41394
792.1612,782.0879,805.05493,807.47253
791.3553,773.22345,807.47253,790.9524
798.60803,783.69965,815.5311,800.2198
809.0842,801.4286,832.4542,808.68134
815.9341,806.6667,838.0952,812.71063
814.3223,812.71063,833.2601,830.0366
826.8132,812.71063,832.0513,827.619
822.381,807.8755,833.663,821.1722
808.68134,803.8461,831.6484,817.9487
805.8608,809.4872,830.84247,808.2784
801.02563,807.0696,834.0659,805.4579
811.0989,797.3993,842.9304,815.12823
813.91943,799.011,841.7216,816.7399
804.2491,803.44324,837.28937,807.47253
805.05493,802.23444,844.1392,809.89014
800.6227,796.99634,844.94507,817.5458
798.60803,794.9817,838.49817,812.3077
809.0842,795.38464,839.304,808.68134
812.3077,796.5934,840.10986,813.5165
798.60803,799.41394,834.0659,802.6374
806.26373,804.2491,842.1245,820.7692
801.8315,805.8608,844.94507,827.619
791.75824,803.44324,827.619,791.3553
803.44324,794.9817,819.9634,792.5641
798.60803,796.5934,823.9927,801.8315
797.8022,800.6227,830.0366,787.326
806.6667,798.20514,836.08057,794.57874
799.011,794.9817,833.663,805.05493
801.4286,790.9524,826.0073,798.60803
808.2784,788.5348,819.9634,799.011
796.5934,796.5934,828.022,803.8461
795.78754,803.44324,830.84247,812.3077
804.2491,801.02563,824.3956,819.15753
795.38464,795.38464,827.2161,798.60803
790.14655,788.93774,819.5604,770
793.7729,788.5348,817.1429,787.72894
786.52014,788.1319,822.381,819.5604
784.90845,794.9817,820.7692,819.9634
788.1319,793.36993,814.7253,783.2967
782.49084,791.75824,811.0989,763.5531
783.2967,796.1905,806.6667,788.93774
791.3553,800.2198,807.47253,804.65204
788.5348,800.2198,809.4872,796.5934
786.52014,795.38464,809.89014,782.8938
793.7729,803.0403,813.1135,783.69965
792.5641,807.0696,814.7253,804.2491
799.41394,806.6667,820.7692,825.2015
792.1612,799.41394,820.7692,807.0696
782.8938,794.9817,810.696,805.05493
798.20514,797.8022,810.293,796.99634
799.81683,799.81683,815.5311,780.87915
801.4286,799.011,812.3077,803.0403
805.05493,787.326,803.8461,811.0989
799.41394,803.0403,806.6667,811.0989
794.17584,807.8755,805.05493,791.75824
796.99634,798.60803,797.3993,784.90845
795.38464,800.2198,796.99634,800.2198
797.8022,805.4579,801.4286,803.8461
788.1319,804.65204,799.41394,780.07324
780.87915,803.8461,798.20514,778.86444
789.34064,802.6374,801.8315,793.36993
786.9231,806.26373,811.9048,809.89014
792.96704,808.2784,815.12823,813.5165
792.1612,800.2198,806.6667,794.9817
801.8315,808.2784,816.337,796.1905
799.011,805.05493,812.3077,788.5348
794.9817,803.44324,808.68134,801.8315
794.17584,811.50183,805.4579,811.50183
799.41394,812.71063,806.26373,815.12823
806.26373,812.3077,807.8755,801.02563
791.75824,807.0696,808.2784,767.1795
782.49084,793.7729,811.50183,774.43225
797.8022,791.75824,813.91943,807.47253
798.20514,793.36993,807.47253,813.5165
794.17584,801.8315,796.5934,805.4579
782.49084,803.8461,793.36993,787.326
784.90845,797.8022,802.6374,795.38464
797.8022,798.60803,798.20514,805.05493
794.57874,795.78754,788.5348,803.0403
796.1905,798.20514,790.9524,804.65204
792.5641,797.3993,792.1612,790.54944
791.3553,799.011,788.5348,789.34064
808.2784,803.0403,790.14655,807.47253
799.81683,796.5934,795.78754,803.8461
787.326,794.57874,793.7729,796.1905
784.90845,791.3553,790.14655,788.93774
780.07324,794.57874,789.34064,785.31134
789.7436,797.3993,784.90845,812.3077
796.5934,798.60803,788.1319,807.0696
790.54944,800.6227,792.5641,786.1172
788.5348,798.20514,794.57874,784.10254
788.1319,796.5934,796.99634,789.7436
791.75824,799.81683,799.81683,805.8608
786.1172,803.44324,805.8608,817.5458
780.87915,799.011,803.8461,805.05493
788.5348,791.75824,793.36993,788.93774
785.7143,783.2967,789.7436,777.25275
783.2967,782.8938,792.96704,789.34064
792.5641,791.75824,792.96704,806.6667
799.41394,788.1319,798.60803,801.8315
789.34064,784.90845,799.81683,792.96704
779.2674,787.326,793.36993,789.34064
791.75824,786.9231,790.14655,805.05493
799.81683,786.1172,790.9524,818.7546
799.011,793.36993,791.3553,808.68134
793.36993,800.2198,797.3993,778.86444
792.5641,794.17584,795.78754,770.80585
791.75824,791.75824,784.5055,781.685
791.3553,796.1905,788.5348,786.9231
797.8022,800.6227,792.1612,782.0879
801.8315,803.8461,795.78754,781.28204
791.75824,800.2198,798.60803,787.72894
782.49084,791.75824,798.20514,798.20514
790.9524,794.57874,798.60803,812.3077
791.3553,799.41394,794.57874,797.8022
789.7436,797.8022,788.5348,779.2674
777.6557,797.8022,786.52014,775.2381
774.43225,802.6374,794.57874,783.2967
780.4762,798.60803,796.1905,800.2198
776.4469,798.60803,797.3993,813.91943
779.2674,803.8461,801.02563,800.6227
791.75824,803.0403,794.9817,782.0879
793.7729,800.6227,796.5934,788.1319
793.7729,799.011,788.5348,799.81683
797.3993,794.57874,784.10254,827.619
799.81683,795.78754,791.3553,831.2454
809.89014,801.02563,787.326,816.7399
824.3956,811.0989,793.7729,829.6337
816.7399,818.7546,793.7729,831.2454
796.1905,798.60803,786.52014,801.02563
790.54944,778.46155,792.96704,790.14655
799.011,778.0586,791.75824,770
805.8608,784.5055,787.326,768.3883
798.20514,793.36993,790.14655,803.8461
793.36993,796.5934,785.31134,808.68134
807.8755,797.3993,785.31134,804.65204
795.38464,798.60803,782.49084,787.326
774.43225,802.6374,775.64105,768.7912
793.7729,813.91943,778.0586,805.4579
804.65204,816.337,777.25275,811.50183
797.8022,816.7399,772.4176,791.75824
791.75824,825.6044,776.4469,783.2967
788.93774,823.1868,780.07324,783.69965
795.38464,816.337,782.0879,801.02563
796.1905,818.3516,784.90845,802.6374
790.54944,813.91943,784.5055,793.36993
793.36993,811.50183,786.52014,788.93774
792.5641,817.1429,790.54944,784.5055
787.326,808.2784,783.2967,783.69965
792.1612,801.8315,777.6557,795.38464
790.54944,803.44324,786.9231,805.8608
797.8022,797.3993,785.7143,797.3993
796.1905,791.3553,784.90845,777.6557
796.1905,799.011,784.90845,781.685
804.65204,798.20514,783.2967,804.65204
809.4872,788.93774,787.72894,811.50183
805.05493,791.75824,780.87915,805.8608
798.20514,796.5934,783.69965,784.5055
793.7729,788.5348,787.72894,780.07324
796.5934,798.20514,784.5055,790.14655
805.05493,810.696,793.7729,799.81683
803.44324,802.23444,790.54944,792.96704
793.36993,802.6374,782.0879,779.67035
785.31134,807.8755,790.54944,784.10254
792.5641,812.3077,796.5934,788.93774
792.96704,813.91943,796.5934,790.9524
785.7143,807.47253,795.78754,791.75824
786.52014,800.2198,794.9817,774.83514
777.25275,796.5934,791.75824,763.95605
781.685,796.5934,797.3993,792.5641
789.7436,805.4579,797.8022,801.8315
795.78754,805.05493,789.7436,789.7436
792.1612,800.2198,790.14655,770.80585
792.5641,803.44324,792.5641,785.31134
799.011,798.60803,789.7436,812.71063
788.1319,791.75824,784.5055,801.8315
790.54944,794.9817,780.4762,781.685
796.99634,799.41394,788.1319,783.2967
797.3993,798.60803,789.34064,788.1319
796.1905,789.34064,789.7436,801.02563
801.8315,786.9231,790.54944,807.8755
804.2491,789.34064,782.8938,793.36993
788.93774,789.34064,786.52014,778.86444
792.96704,796.99634,799.011,774.83514
797.3993,801.4286,795.38464,797.8022
791.75824,805.05493,792.96704,806.6667
788.5348,805.4579,792.5641,780.4762
780.87915,796.99634,794.9817,783.2967
789.34064,798.20514,798.60803,774.83514
778.46155,805.8608,802.23444,803.44324
781.685,793.7729,802.6374,791.75824
790.9524,796.99634,797.8022,781.685
791.75824,804.2491,793.36993,774.0293
785.31134,798.60803,798.60803,793.36993
797.8022,807.47253,802.23444,801.8315
786.9231,805.4579,796.99634,787.326
782.0879,802.23444,790.54944,788.93774
774.43225,788.1319,789.7436,774.43225
785.7143,793.7729,796.5934,770
786.9231,790.14655,790.54944,785.31134
782.49084,792.1612,789.7436,793.7729
781.28204,801.8315,794.9817,790.9524
790.9524,802.6374,793.36993,792.5641
790.14655,799.41394,798.60803,784.90845
786.1172,799.41394,810.293,781.685
794.9817,796.99634,807.47253,801.02563
795.78754,801.8315,800.6227,792.1612
799.41394,812.71063,803.8461,787.72894
794.9817,801.02563,803.0403,785.7143
784.5055,791.75824,795.78754,768.7912
784.5055,800.6227,796.5934,776.04395
782.8938,802.6374,800.2198,787.72894
785.7143,800.2198,802.23444,788.93774
778.0586,804.2491,804.65204,782.0879
773.6264,803.8461,800.2198,779.2674
779.67035,796.99634,799.41394,781.685
785.31134,796.99634,800.6227,786.52014
776.4469,800.2198,800.6227,774.43225
763.5531,797.8022,802.6374,771.6117
772.01465,802.23444,803.8461,775.2381
779.67035,807.0696,805.8608,767.98535
773.22345,796.99634,803.44324,781.28204
780.87915,807.8755,801.4286,769.59705
799.41394,810.293,793.36993,780.87915
794.57874,810.696,788.1319,802.23444
792.1612,793.7729,787.72894,796.1905
801.8315,794.57874,788.5348,807.0696
801.8315,797.3993,782.0879,799.41394
803.44324,815.12823,788.1319,801.8315
798.60803,797.8022,783.2967,798.20514
806.26373,799.81683,791.3553,828.022
779.2674,798.20514,805.8608,782.8938
812.3077,788.93774,791.75824,824.3956
807.8755,785.31134,786.52014,791.75824
797.8022,789.7436,782.0879,802.23444
804.2491,787.326,782.0879,817.5458
808.2784,783.2967,778.86444,815.12823
803.44324,787.72894,774.83514,800.6227
803.44324,786.1172,778.86444,776.4469
798.20514,780.4762,781.685,787.72894
798.60803,786.52014,786.52014,809.4872
798.60803,790.9524,781.28204,806.26373
801.02563,791.3553,781.28204,808.68134
801.8315,791.75824,785.7143,804.65204
788.1319,786.52014,784.10254,788.5348
793.7729,789.34064,789.7436,796.5934
798.20514,785.31134,785.7143,803.8461
788.93774,786.9231,782.0879,786.1172
788.5348,794.17584,785.7143,790.9524
790.9524,787.326,788.1319,799.41394
796.1905,786.52014,786.9231,792.5641
794.17584,786.1172,781.28204,802.6374
796.5934,783.2967,789.7436,809.4872
801.8315,786.9231,792.96704,802.23444
783.2967,786.9231,786.52014,786.9231
787.326,782.0879,788.93774,784.5055
796.1905,780.07324,789.34064,805.8608
792.5641,782.0879,785.7143,806.26373
801.02563,786.1172,788.1319,794.57874
800.2198,788.93774,793.7729,792.1612
801.4286,794.9817,789.7436,799.011
795.38464,790.54944,784.5055,807.0696
800.2198,788.5348,791.3553,794.57874
805.4579,792.96704,791.3553,780.4762
796.1905,794.17584,796.99634,787.72894
793.7729,798.20514,795.38464,807.47253
804.65204,795.78754,803.44324,810.696
791.3553,795.38464,788.93774,784.5055
799.41394,797.3993,802.6374,796.5934
799.41394,796.1905,796.1905,780.07324
789.34064,790.14655,792.1612,772.8205
783.69965,787.72894,791.75824,790.9524
793.7729,786.9231,798.60803,800.6227
792.1612,793.36993,799.011,786.9231
800.6227,794.17584,794.9817,777.6557
793.36993,787.326,791.75824,793.7729
794.57874,790.9524,792.5641,813.5165
796.99634,798.60803,794.57874,807.8755
796.5934,794.57874,799.81683,810.696
806.26373,793.36993,799.41394,795.38464
805.4579,792.96704,788.5348,784.90845
800.6227,794.17584,790.14655,813.91943
807.0696,803.8461,792.5641,824.7985
807.8755,801.8315,794.17584,807.8755
800.6227,798.60803,794.17584,794.57874
806.6667,803.0403,796.1905,798.60803
817.1429,797.8022,800.6227,806.26373
818.3516,793.7729,794.9817,811.0989
811.0989,796.5934,789.7436,818.7546
804.2491,798.60803,792.5641,805.4579
796.5934,798.60803,793.7729,784.90845
811.9048,801.4286,798.60803,799.011
809.89014,806.6667,800.6227,802.23444
809.0842,809.89014,802.23444,811.0989
806.6667,804.65204,798.60803,803.8461
792.1612,805.8608,798.60803,807.0696
795.78754,805.4579,797.3993,801.4286
798.20514,799.011,798.60803,798.60803
782.49084,797.3993,800.6227,787.72894
783.69965,807.47253,803.44324,789.34064
795.38464,805.8608,804.2491,814.7253
778.0586,802.23444,803.44324,782.0879
795.38464,794.9817,800.6227,814.3223
816.337,803.8461,799.81683,805.4579
785.31134,792.1612,796.99634,783.2967
786.52014,794.57874,800.6227,785.7143
791.3553,797.3993,802.23444,794.9817
784.90845,798.60803,807.8755,803.8461
799.011,791.75824,808.68134,828.8278
803.44324,794.17584,802.6374,816.7399
785.31134,790.54944,794.17584,784.10254
793.36993,784.5055,791.75824,785.7143
808.2784,788.93774,795.78754,796.1905
808.2784,788.1319,797.8022,815.9341
811.0989,782.8938,794.57874,824.3956
817.9487,792.5641,790.54944,805.8608
810.293,790.54944,792.96704,796.99634
807.47253,782.8938,791.75824,811.50183
815.12823,787.326,791.75824,811.9048
810.293,790.14655,793.7729,802.6374
795.38464,793.36993,794.17584,798.60803
785.7143,798.20514,791.75824,782.0879
777.25275,790.9524,793.7729,787.326
780.87915,788.93774,801.8315,803.44324
795.38464,806.26373,802.23444,786.52014
784.5055,803.0403,794.17584,770.40295
778.46155,800.6227,794.57874,780.07324
790.54944,802.23444,803.44324,786.1172
788.1319,804.65204,810.696,792.5641
787.72894,809.89014,811.50183,804.65204
784.5055,805.8608,807.47253,792.5641
776.4469,804.65204,808.2784,761.53845
776.04395,807.0696,809.89014,774.0293
790.54944,813.1135,811.9048,811.0989
793.36993,801.8315,814.7253,797.8022
797.3993,797.8022,815.5311,799.41394
801.4286,805.4579,813.5165,805.4579
781.685,801.8315,812.3077,792.5641
788.1319,803.0403,809.4872,795.38464
795.78754,811.0989,802.6374,794.9817
787.72894,808.2784,809.0842,798.60803
784.90845,794.17584,811.50183,787.326
784.90845,790.54944,804.2491,776.4469
790.54944,809.4872,803.0403,789.34064
795.38464,817.5458,801.02563,792.96704
793.36993,805.05493,802.23444,792.1612
792.1612,801.02563,796.1905,785.7143
781.685,802.6374,784.90845,773.6264
790.14655,805.8608,784.10254,786.9231
796.99634,803.8461,786.1172,792.96704
788.93774,809.4872,787.326,776.8498
784.10254,821.978,781.685,762.74725
796.1905,819.9634,774.43225,777.6557
811.50183,813.5165,786.9231,796.99634
799.011,810.293,791.75824,789.7436
790.9524,804.2491,782.8938,782.0879
799.011,807.47253,776.4469,778.0586
798.20514,819.5604,771.2088,773.22345
801.4286,811.50183,775.64105,787.72894
800.6227,802.23444,778.86444,803.0403
802.23444,812.3077,782.49084,798.60803
802.23444,811.9048,788.93774,797.3993
790.54944,805.05493,791.75824,782.8938
787.72894,813.91943,783.69965,779.2674
790.54944,813.91943,776.4469,794.17584
794.57874,801.8315,782.0879,782.8938
784.5055,808.68134,791.3553,772.01465
784.5055,818.7546,793.7729,770.80585
799.81683,821.978,789.34064,791.75824
800.6227,823.1868,790.14655,805.8608
786.1172,813.1135,798.20514,796.99634
778.86444,809.4872,798.60803,782.8938
793.36993,815.12823,793.36993,758.71796
780.07324,807.47253,798.20514,793.7729
792.96704,810.293,801.4286,774.0293
780.4762,816.7399,789.34064,786.52014
794.9817,819.5604,789.7436,784.90845
790.9524,813.1135,792.96704,784.90845
785.31134,811.0989,798.60803,781.685
794.9817,814.3223,797.3993,794.57874
782.49084,810.293,793.36993,778.86444
783.2967,805.4579,787.72894,765.9707
798.20514,801.4286,785.31134,772.01465
790.9524,799.81683,795.78754,781.685
775.64105,803.44324,804.65204,800.2198
788.93774,801.8315,797.3993,802.23444
790.14655,796.5934,801.02563,789.7436
783.2967,799.011,799.41394,775.2381
786.9231,804.65204,789.7436,789.34064
786.9231,803.0403,795.78754,794.17584
792.96704,798.20514,802.6374,796.5934
792.1612,799.81683,805.4579,807.47253
791.3553,806.6667,807.47253,783.69965
794.9817,816.7399,803.8461,777.6557
795.38464,807.8755,795.38464,794.9817
800.6227,792.5641,795.38464,801.02563
806.26373,790.14655,800.6227,801.4286
784.10254,789.34064,797.3993,785.31134
778.0586,791.75824,788.93774,784.10254
790.9524,794.17584,785.31134,799.81683
788.93774,790.14655,788.93774,786.1172
791.3553,794.17584,798.20514,783.69965
791.3553,796.5934,791.75824,786.1172
795.38464,787.326,801.4286,788.93774
792.5641,783.2967,794.57874,781.28204
803.0403,796.99634,798.20514,787.72894
796.5934,794.17584,797.8022,796.5934
784.90845,794.9817,792.96704,794.57874
775.64105,796.99634,789.34064,774.0293
781.28204,796.1905,792.96704,784.10254
792.5641,794.57874,802.23444,801.8315
787.326,792.1612,804.65204,799.011
785.31134,795.78754,804.2491,794.9817
792.5641,800.2198,804.65204,788.1319
798.60803,801.8315,805.8608,813.1135
791.3553,801.4286,808.2784,822.381
791.3553,807.47253,809.89014,803.0403
803.8461,814.3223,806.26373,805.05493
794.17584,809.89014,807.47253,789.34064
775.64105,799.41394,807.47253,785.7143
787.326,799.011,805.05493,801.8315
801.4286,793.36993,807.8755,817.9487
797.8022,788.93774,794.17584,787.326
792.5641,789.34064,785.7143,758.315
787.72894,794.17584,796.5934,798.60803
796.99634,800.6227,800.2198,803.44324
793.36993,779.67035,794.9817,776.04395
780.4762,778.46155,791.75824,769.59705
783.2967,784.10254,796.99634,800.2198
790.14655,786.52014,804.2491,806.6667
795.78754,786.52014,810.696,794.9817
806.6667,794.57874,796.99634,782.8938
787.326,792.96704,803.44324,787.72894
785.31134,788.5348,807.8755,790.9524
789.34064,787.326,810.293,789.7436
784.5055,789.7436,807.47253,790.54944
800.6227,797.3993,806.26373,803.8461
789.7436,795.38464,814.7253,807.47253
781.28204,789.7436,809.0842,779.2674
770,792.96704,816.337,775.64105
784.5055,780.87915,811.0989,806.26373
786.1172,791.75824,817.9487,803.8461
797.3993,800.2198,815.12823,796.5934
798.60803,792.5641,811.50183,793.36993
786.52014,791.75824,810.293,782.8938
785.7143,788.1319,813.1135,793.7729
790.54944,788.1319,815.5311,809.4872
783.2967,795.38464,819.15753,805.05493
785.7143,794.57874,815.5311,780.4762
780.4762,787.72894,802.23444,776.8498
778.86444,791.75824,806.6667,794.57874
785.7143,795.38464,815.9341,805.8608
792.5641,785.31134,815.9341,814.3223
796.99634,785.7143,816.7399,793.7729
789.34064,789.7436,813.1135,782.8938
790.14655,787.72894,808.2784,802.23444
786.1172,786.1172,806.26373,792.96704
778.86444,788.5348,808.68134,773.6264
773.6264,786.1172,809.0842,768.3883
786.1172,781.28204,805.05493,782.0879
785.31134,789.34064,813.1135,792.96704
771.6117,790.9524,816.337,780.87915
780.4762,791.3553,811.0989,775.2381
774.83514,786.52014,809.89014,786.9231
774.83514,780.87915,804.2491,787.72894
789.34064,792.5641,802.6374,805.05493
792.5641,798.20514,804.65204,805.05493
792.96704,795.38464,808.68134,788.93774
791.75824,792.5641,815.5311,791.3553
794.9817,798.60803,817.5458,782.0879
794.57874,797.8022,812.71063,789.34064
790.14655,790.54944,805.8608,804.65204
794.57874,786.52014,801.8315,800.6227
790.9524,783.69965,805.8608,788.5348
779.67035,784.5055,809.0842,787.326
785.7143,788.5348,805.4579,790.54944
789.34064,790.54944,800.2198,794.17584
793.36993,793.7729,798.20514,794.57874
799.81683,803.8461,799.41394,794.57874
787.326,800.6227,794.9817,774.0293
778.0586,790.9524,794.17584,772.8205
776.8498,792.96704,801.02563,796.5934
780.87915,799.41394,806.6667,792.96704
786.1172,799.41394,799.81683,796.1905
782.49084,800.6227,792.96704,785.7143
785.31134,799.41394,795.78754,766.3736
786.9231,796.99634,800.2198,792.1612
783.69965,805.05493,804.2491,797.8022
786.52014,816.7399,802.23444,786.9231
790.9524,813.5165,791.3553,792.1612
780.07324,801.4286,790.54944,785.31134
779.67035,802.6374,798.60803,786.52014
807.47253,807.0696,803.0403,809.4872
800.6227,805.8608,804.2491,808.2784
779.2674,799.011,807.8755,790.54944
781.28204,796.99634,808.68134,780.87915
786.1172,797.3993,807.0696,788.93774
792.1612,794.9817,803.0403,806.6667
789.7436,793.7729,799.41394,819.9634
780.4762,795.38464,799.011,790.14655
792.96704,792.96704,799.41394,797.3993
801.02563,799.81683,793.36993,809.89014
809.89014,788.93774,795.78754,803.8461
783.2967,790.14655,803.44324,773.6264
796.5934,777.6557,790.14655,783.2967
792.5641,782.8938,789.34064,769.19415
796.5934,792.5641,791.3553,781.28204
790.14655,794.17584,792.1612,794.17584
792.96704,795.78754,790.9524,797.3993
796.5934,794.9817,792.5641,782.49084
795.78754,795.38464,798.60803,773.22345
800.2198,795.78754,796.99634,786.52014
794.17584,802.23444,795.38464,800.6227
783.69965,803.44324,797.3993,794.57874
784.5055,797.8022,797.8022,780.4762
784.90845,796.99634,796.5934,784.5055
790.9524,800.6227,793.7729,778.0586
789.34064,800.2198,793.7729,783.2967
781.685,794.9817,799.011,792.1612
785.31134,793.36993,803.0403,788.5348
789.34064,796.1905,803.0403,781.685
791.3553,803.0403,794.9817,788.5348
795.78754,809.89014,792.96704,814.7253
788.1319,804.2491,793.7729,809.4872
786.1172,804.2491,791.3553,796.1905
785.31134,810.696,794.9817,786.9231
776.8498,800.6227,794.57874,773.6264
792.1612,799.011,792.96704,793.36993
792.96704,804.65204,798.20514,815.12823
779.2674,801.8315,798.20514,804.2491
790.9524,798.20514,796.1905,772.8205
796.99634,799.81683,798.20514,770
791.75824,803.8461,795.38464,796.5934
792.96704,804.65204,801.02563,803.8461
791.75824,806.6667,807.0696,799.81683
791.75824,804.65204,801.02563,788.1319
789.34064,801.4286,796.5934,792.96704
783.69965,800.2198,803.0403,803.0403
785.7143,793.36993,791.3553,780.4762
779.2674,796.5934,793.7729,790.14655
792.96704,802.6374,800.6227,806.26373
783.69965,797.8022,796.5934,797.3993
791.3553,798.20514,796.5934,784.90845
786.52014,799.011,797.3993,778.0586
786.9231,796.5934,794.9817,815.12823
793.7729,798.60803,799.41394,810.696
801.8315,807.8755,802.23444,794.17584
806.6667,808.68134,805.8608,809.89014
799.81683,803.0403,817.9487,821.5751
802.23444,820.7692,823.9927,815.9341
807.0696,830.0366,813.5165,805.8608
808.68134,810.293,806.6667,792.1612
803.44324,803.44324,810.696,815.12823
805.8608,804.65204,815.12823,826.0073
813.1135,809.0842,814.7253,808.68134
804.65204,820.7692,815.9341,809.0842
788.93774,814.3223,811.50183,795.38464
796.99634,802.23444,800.6227,801.02563
800.6227,804.65204,802.6374,818.7546
791.75824,813.91943,809.0842,822.7839
809.4872,814.3223,806.6667,812.3077
808.2784,816.337,808.2784,794.9817
796.5934,813.5165,818.7546,799.41394
797.8022,802.23444,818.3516,815.9341
798.20514,804.2491,813.5165,825.2015
801.8315,813.5165,811.50183,806.26373
796.99634,820.3663,807.0696,776.8498
780.07324,807.8755,804.2491,780.07324
788.5348,798.20514,807.8755,798.60803
788.93774,813.91943,798.60803,788.1319
791.75824,805.4579,802.6374,795.38464
786.1172,815.9341,806.6667,774.83514
785.31134,814.3223,799.41394,780.4762
801.8315,809.89014,812.3077,803.0403
805.05493,792.96704,808.68134,813.1135
802.23444,795.38464,802.23444,796.99634
794.17584,800.2198,797.8022,781.685
783.2967,807.8755,813.1135,796.99634
786.9231,808.68134,810.696,805.05493
794.17584,803.44324,793.7729,785.7143
782.0879,799.011,797.3993,793.36993
783.69965,805.05493,800.6227,802.6374
796.1905,809.4872,800.6227,784.10254
794.57874,801.02563,797.8022,785.31134
796.1905,803.8461,799.011,806.6667
791.3553,809.4872,805.8608,794.57874
782.0879,802.23444,803.0403,784.90845
782.49084,796.99634,795.38464,781.685
780.07324,802.6374,798.60803,782.0879
790.14655,801.02563,797.8022,794.57874
799.011,799.81683,793.7729,807.0696
794.57874,798.60803,794.17584,790.54944
788.93774,801.02563,799.81683,771.6117
785.7143,800.2198,809.0842,789.7436
788.1319,794.17584,799.011,788.93774
787.72894,799.011,792.1612,790.54944
792.96704,796.99634,799.41394,767.1795
797.3993,802.23444,795.38464,781.28204
786.1172,793.7729,792.96704,791.75824
786.9231,794.17584,785.7143,797.3993
785.31134,788.5348,790.9524,800.2198
787.326,793.36993,808.68134,804.65204
781.685,788.5348,790.9524,777.25275
778.46155,791.3553,792.5641,766.3736
776.4469,790.54944,792.5641,802.23444
783.69965,787.326,781.28204,808.2784
791.75824,788.93774,780.4762,788.1319
789.34064,792.5641,784.10254,769.19415
774.0293,786.52014,782.0879,770
776.04395,789.7436,788.1319,787.326
787.72894,796.1905,790.54944,791.3553
784.10254,789.7436,786.9231,780.4762
786.9231,788.1319,790.9524,763.95605
793.7729,796.5934,795.78754,761.13556
784.10254,795.38464,802.6374,790.9524
788.93774,792.5641,801.02563,791.75824
794.17584,792.96704,794.9817,778.86444
788.93774,784.10254,795.78754,785.7143
786.52014,785.31134,794.57874,790.14655
780.4762,799.011,787.326,776.04395
780.07324,799.41394,786.9231,774.43225
789.7436,800.6227,790.54944,780.07324
780.87915,796.99634,793.7729,768.3883
772.8205,786.9231,800.6227,773.22345
777.6557,792.96704,799.41394,785.31134
773.6264,803.44324,794.17584,791.3553
781.28204,801.8315,795.38464,804.2491
781.685,799.41394,796.99634,782.0879
780.07324,799.41394,799.41394,775.2381
777.6557,799.011,802.23444,805.4579
775.2381,800.2198,799.81683,805.4579
793.7729,796.99634,800.6227,808.68134
795.78754,794.57874,794.9817,808.2784
784.90845,797.3993,793.36993,792.5641
784.10254,793.7729,801.8315,789.7436
782.0879,792.5641,798.20514,801.8315
797.8022,792.1612,791.75824,803.0403
794.17584,785.31134,792.96704,796.99634
781.685,788.5348,798.20514,792.5641
783.2967,794.9817,803.0403,772.8205
788.93774,801.02563,806.26373,785.7143
800.2198,804.2491,808.2784,799.81683
786.9231,799.011,804.65204,788.5348
781.685,793.7729,800.2198,783.69965
791.3553,797.3993,799.81683,797.8022
788.5348,796.1905,802.6374,800.6227
794.57874,794.17584,802.6374,799.011
790.9524,790.9524,798.60803,800.2198
784.10254,784.5055,796.1905,780.07324
794.9817,792.96704,794.17584,783.69965
793.36993,793.36993,790.9524,787.326
790.14655,788.1319,787.326,792.1612
799.011,794.17584,795.38464,785.7143
792.96704,788.93774,795.78754,777.6557
788.1319,790.9524,786.52014,791.75824
803.0403,803.8461,787.72894,805.4579
786.52014,793.36993,799.41394,796.1905
785.31134,795.38464,795.78754,791.3553
789.34064,791.75824,786.52014,787.326
795.78754,786.9231,787.72894,791.75824
794.9817,788.5348,792.1612,801.02563
792.1612,803.8461,792.5641,796.99634
795.78754,807.0696,789.34064,782.49084
803.0403,796.1905,790.54944,802.23444
784.10254,795.38464,792.5641,779.67035
792.96704,803.0403,784.90845,802.6374
802.23444,799.011,792.1612,809.89014
777.25275,793.36993,792.5641,785.31134
810.293,789.7436,794.17584,794.57874
797.3993,794.9817,796.99634,781.28204
792.1612,802.6374,801.02563,789.34064
807.47253,799.41394,803.44324,807.47253
802.23444,793.36993,801.4286,811.50183
796.1905,799.011,795.38464,792.1612
794.57874,794.9817,797.3993,773.22345
789.7436,786.9231,801.02563,791.75824
800.2198,788.5348,805.05493,814.3223
800.2198,794.57874,800.6227,796.5934
786.9231,798.20514,790.9524,779.2674
779.67035,792.96704,790.54944,778.86444
785.7143,788.1319,794.9817,792.1612
785.7143,791.75824,802.6374,797.3993
784.10254,784.5055,792.96704,776.8498
782.0879,783.2967,795.78754,786.1172
784.10254,794.9817,799.011,801.8315
790.9524,790.14655,789.7436,791.75824
792.1612,790.14655,796.99634,807.47253
793.36993,785.31134,795.78754,796.5934
789.7436,794.17584,801.8315,794.17584
789.7436,796.99634,790.9524,788.1319
801.02563,792.96704,789.34064,809.89014
792.1612,798.60803,801.02563,777.6557
801.4286,792.5641,792.1612,800.6227
803.0403,788.5348,796.1905,800.2198
789.34064,790.54944,794.9817,791.75824
796.5934,788.93774,797.3993,787.72894
804.65204,792.1612,793.36993,809.4872
794.57874,791.75824,792.5641,812.71063
799.41394,797.8022,789.7436,804.65204
796.99634,794.9817,791.3553,781.28204
795.78754,787.326,792.96704,776.4469
791.3553,786.52014,792.96704,789.34064
794.17584,788.1319,794.57874,813.1135
797.8022,792.96704,796.1905,807.47253
794.9817,793.7729,791.3553,793.7729
789.7436,792.96704,796.1905,799.011
794.9817,788.93774,799.81683,804.65204
796.1905,780.4762,795.78754,799.011
794.57874,784.5055,796.1905,798.20514
792.5641,792.5641,795.38464,786.1172
805.4579,788.93774,801.4286,806.6667
796.99634,790.9524,795.38464,784.10254
801.02563,790.9524,806.26373,807.0696
800.2198,788.5348,805.05493,812.3077
803.44324,788.93774,803.44324,808.68134
799.81683,789.7436,801.02563,783.2967
797.3993,784.90845,797.3993,786.52014
800.2198,787.72894,792.5641,805.8608
801.4286,788.93774,794.17584,807.8755
799.41394,789.7436,796.99634,792.5641
799.81683,791.75824,797.3993,779.67035
803.0403,788.5348,802.23444,799.81683
800.2198,782.0879,800.2198,813.91943
796.1905,787.72894,796.1905,806.26373
796.5934,791.3553,797.3993,797.3993
793.36993,788.1319,796.99634,788.5348
795.38464,793.7729,792.96704,803.8461
800.2198,795.38464,792.5641,819.15753
794.57874,799.81683,798.20514,823.5897
803.44324,805.05493,797.8022,815.9341
791.3553,802.23444,799.011,790.54944
786.9231,795.38464,804.2491,800.6227
801.4286,795.78754,799.011,811.9048
801.02563,797.8022,789.34064,822.7839
794.57874,797.3993,793.36993,818.7546
786.9231,798.60803,798.20514,790.54944
797.3993,794.9817,801.8315,782.49084
801.8315,797.3993,806.26373,813.1135
796.1905,798.20514,803.0403,820.3663
804.2491,801.02563,805.8608,812.3077
803.44324,802.23444,805.8608,802.6374
790.9524,800.2198,798.20514,789.34064
793.36993,800.6227,799.81683,802.6374
800.2198,801.02563,801.4286,812.71063
793.7729,801.02563,798.60803,802.23444
789.34064,793.36993,798.20514,793.36993
791.75824,787.72894,796.1905,793.36993
792.5641,789.34064,797.3993,796.1905
803.44324,792.5641,797.8022,802.23444
802.23444,792.1612,793.7729,804.65204
799.81683,791.75824,793.7729,790.54944
797.3993,797.3993,793.7729,784.10254
794.17584,798.60803,790.9524,803.0403
800.2198,796.5934,793.36993,818.7546
805.05493,795.38464,792.96704,813.91943
798.20514,794.9817,787.72894,787.326
781.685,792.5641,783.2967,772.8205
781.685,792.5641,791.3553,789.7436
792.96704,795.38464,793.36993,804.2491
788.93774,796.99634,792.96704,813.5165
787.326,796.5934,796.1905,805.05493
782.8938,799.011,795.38464,781.28204
781.685,799.41394,792.5641,775.64105
791.75824,796.1905,791.3553,792.5641
792.1612,796.1905,794.9817,799.41394
796.99634,799.011,799.81683,788.93774
797.3993,801.8315,805.05493,786.1172
802.23444,802.6374,800.6227,781.685
805.4579,807.0696,799.41394,788.93774
792.5641,805.8608,801.02563,801.4286
793.36993,799.011,797.8022,794.9817
799.011,801.4286,800.6227,799.81683
791.3553,805.8608,804.2491,793.7729
781.28204,798.60803,801.02563,799.011
784.90845,799.41394,801.8315,807.47253
790.9524,808.68134,805.4579,798.60803
791.75824,806.6667,803.44324,792.96704
788.5348,805.8608,809.0842,782.49084
781.685,803.44324,811.50183,795.38464
786.1172,794.17584,810.293,812.3077
787.326,799.81683,804.65204,811.0989
789.7436,803.8461,799.011,790.14655
786.9231,801.02563,807.8755,765.16486
790.9524,800.2198,810.696,801.02563
790.14655,806.26373,807.8755,817.5458
782.0879,811.9048,807.8755,794.9817
799.81683,811.9048,805.05493,794.17584
793.7729,810.293,802.6374,786.1172
781.28204,807.8755,809.0842,794.17584
790.14655,808.2784,819.15753,809.0842
784.5055,805.8608,812.3077,809.0842
783.69965,803.0403,805.4579,781.685
783.2967,796.99634,804.65204,773.6264
776.8498,799.011,805.4579,788.93774
783.69965,805.8608,807.8755,788.93774
803.44324,807.47253,805.4579,805.8608
794.9817,805.4579,800.2198,788.93774
781.28204,794.9817,797.3993,796.5934
783.2967,795.78754,803.44324,785.31134
776.04395,790.9524,787.326,782.0879
784.5055,791.75824,791.75824,769.59705
792.5641,785.7143,795.78754,782.8938
793.7729,792.5641,789.34064,795.38464
801.8315,802.6374,784.10254,797.8022
782.49084,791.75824,791.75824,806.26373
797.8022,795.38464,786.9231,792.96704
782.8938,788.93774,790.9524,780.4762
782.0879,797.8022,801.02563,773.6264
770.80585,788.5348,794.9817,779.2674
786.1172,792.5641,799.41394,810.293
793.7729,801.02563,797.3993,815.12823
790.9524,800.6227,784.90845,788.93774
788.5348,791.75824,792.1612,800.2198
786.1172,794.17584,784.90845,780.4762
793.36993,788.1319,793.36993,813.1135
784.90845,789.34064,796.5934,814.3223
785.7143,801.8315,791.75824,783.69965
789.34064,811.50183,792.1612,770.80585
786.1172,803.44324,797.8022,788.93774
784.90845,795.78754,807.47253,783.2967
781.28204,792.96704,809.0842,790.14655
777.6557,788.1319,797.8022,793.7729
777.25275,790.54944,798.20514,785.31134
784.90845,789.34064,796.5934,782.0879
779.67035,793.7729,798.20514,783.69965
787.72894,790.9524,801.02563,791.3553
782.0879,792.96704,799.011,794.57874
778.86444,787.72894,800.2198,796.1905
793.7729,790.9524,798.20514,792.1612
797.8022,798.20514,795.38464,787.72894
803.0403,798.20514,793.36993,798.20514
785.31134,783.69965,797.3993,813.91943
782.0879,784.5055,791.75824,792.1612
770.40295,791.3553,797.3993,751.06226
782.8938,792.1612,796.99634,806.26373
776.04395,789.7436,794.17584,787.72894
774.83514,799.011,800.2198,782.0879
770,793.7729,797.8022,780.87915
775.2381,786.52014,803.8461,782.49084
772.4176,784.90845,799.41394,788.5348
770.40295,790.14655,797.8022,799.41394
785.7143,794.9817,805.05493,796.99634
784.90845,799.011,803.8461,773.6264
763.5531,791.75824,799.41394,762.74725
761.9414,790.9524,802.6374,773.6264
779.2674,794.9817,802.23444,787.326
783.69965,794.57874,804.2491,794.17584
774.83514,796.1905,799.81683,774.43225
775.2381,795.78754,795.38464,756.30035
778.86444,796.99634,801.02563,782.8938
783.2967,795.38464,799.81683,796.5934
786.52014,793.36993,792.96704,792.5641
782.0879,792.1612,788.5348,790.9524
779.2674,795.38464,788.1319,772.8205
782.0879,803.44324,792.5641,763.95605
785.7143,805.4579,795.78754,786.9231
787.326,802.23444,798.20514,811.50183
784.5055,796.1905,798.60803,789.7436
774.0293,796.5934,791.75824,768.7912
772.4176,803.44324,787.326,786.1172
786.9231,800.6227,791.3553,801.02563
792.5641,804.2491,796.99634,790.54944
776.4469,803.44324,793.36993,796.99634
779.67035,799.41394,788.5348,786.52014
782.8938,801.8315,794.57874,770
786.52014,805.4579,797.3993,796.1905
796.1905,804.65204,794.9817,807.0696
796.99634,809.0842,797.3993,809.0842
795.38464,800.2198,798.20514,803.0403
795.78754,800.6227,801.8315,773.6264
795.78754,799.41394,800.6227,779.67035
795.38464,794.57874,795.38464,805.8608
792.96704,796.1905,796.5934,802.23444
801.02563,802.6374,796.99634,792.5641
797.8022,796.1905,791.75824,788.1319
785.7143,794.57874,796.5934,787.326
776.8498,791.75824,796.1905,790.14655
782.8938,789.7436,791.3553,800.2198
782.8938,793.7729,796.1905,798.60803
782.8938,789.34064,790.14655,789.34064
789.7436,791.3553,786.9231,790.54944
792.1612,796.99634,790.54944,797.3993
788.5348,795.38464,788.93774,799.41394
786.52014,788.93774,793.36993,793.7729
785.7143,796.1905,792.96704,784.10254
778.0586,801.4286,794.9817,783.2967
775.2381,796.1905,794.17584,792.5641
778.86444,795.78754,795.38464,794.17584
791.3553,802.23444,798.60803,793.36993
791.3553,801.8315,790.9524,784.10254
787.72894,796.5934,790.14655,790.54944
795.78754,797.3993,791.75824,801.4286
791.75824,795.38464,790.9524,798.60803
786.1172,790.54944,790.14655,801.4286
790.9524,792.96704,791.75824,780.07324
788.93774,798.20514,796.1905,780.07324
785.31134,795.78754,801.02563,801.02563
792.1612,796.1905,799.81683,801.02563
793.7729,799.011,788.1319,790.9524
785.31134,796.99634,783.2967,782.0879
783.2967,799.011,788.93774,789.34064
790.9524,797.3993,798.20514,805.4579
793.36993,796.1905,800.6227,819.15753
782.8938,795.38464,794.17584,791.75824
775.64105,793.7729,794.17584,771.2088
785.7143,800.6227,798.60803,784.5055
790.14655,806.6667,803.0403,799.41394
795.78754,804.2491,804.2491,809.0842
797.8022,795.38464,803.44324,805.05493
784.5055,797.3993,807.8755,795.78754
775.2381,803.0403,806.6667,789.7436
781.685,796.99634,803.0403,790.14655
788.93774,794.17584,807.47253,800.2198
792.96704,801.4286,809.89014,799.41394
790.9524,797.8022,808.2784,791.3553
786.1172,794.57874,803.0403,781.28204
781.28204,803.0403,798.60803,786.52014
782.0879,803.0403,802.23444,805.4579
786.1172,799.011,799.81683,792.96704
784.5055,798.60803,798.20514,778.86444
783.2967,799.81683,801.4286,793.36993
792.1612,802.23444,805.8608,808.68134
793.7729,789.34064,801.8315,802.23444
786.9231,796.1905,800.2198,806.6667
790.54944,790.14655,805.4579,781.685
781.685,793.36993,805.05493,771.2088
780.07324,797.8022,798.20514,798.20514
792.96704,801.02563,795.78754,808.68134
792.5641,797.8022,800.2198,801.8315
791.3553,794.17584,798.20514,797.8022
790.9524,796.5934,794.57874,778.46155
796.1905,801.8315,801.02563,790.14655
798.20514,800.6227,805.05493,807.47253
790.9524,799.011,809.89014,799.41394
788.1319,801.02563,805.4579,795.38464
784.5055,797.3993,795.38464,795.78754
792.5641,793.7729,797.8022,801.02563
793.36993,799.011,802.23444,800.6227
782.8938,802.23444,803.0403,798.60803
796.99634,799.011,803.44324,798.60803
800.2198,798.60803,802.23444,783.69965
795.78754,799.011,803.0403,787.326
792.1612,799.011,808.2784,809.89014
788.1319,794.9817,803.0403,812.3077
787.326,784.90845,796.1905,794.17584
787.72894,787.72894,797.3993,782.0879
789.7436,788.93774,797.8022,782.8938
783.69965,784.10254,795.38464,794.17584
786.52014,785.7143,797.8022,798.20514
786.1172,782.0879,799.41394,783.2967
789.34064,786.1172,794.9817,782.0879
775.2381,784.90845,794.9817,792.5641
773.22345,783.2967,796.1905,803.0403
792.5641,788.93774,790.9524,795.38464
795.78754,788.93774,794.9817,794.17584
793.36993,790.9524,797.8022,787.72894
782.0879,786.9231,797.3993,777.6557
778.0586,788.5348,805.05493,796.1905
783.2967,790.9524,796.5934,799.41394
784.10254,787.72894,791.75824,784.90845
783.69965,792.1612,796.1905,782.8938
779.2674,795.78754,793.7729,786.1172
778.46155,796.99634,798.60803,792.96704
793.7729,798.60803,801.4286,805.05493
791.3553,797.3993,801.4286,791.75824
784.90845,799.41394,801.02563,784.5055
790.14655,795.78754,790.9524,779.67035
784.90845,787.72894,785.7143,786.52014
781.685,787.72894,790.9524,810.696
785.7143,789.34064,796.5934,807.8755
790.14655,785.7143,795.38464,789.34064
790.14655,781.28204,788.1319,767.1795
777.25275,785.7143,791.75824,782.49084
782.49084,786.1172,797.8022,808.2784
797.3993,784.5055,794.57874,805.05493
797.8022,785.7143,792.96704,799.011
790.9524,777.6557,789.7436,778.46155
792.1612,778.86444,794.17584,802.6374
786.52014,786.1172,790.14655,805.4579
786.52014,775.2381,781.685,793.7729
800.2198,776.04395,789.7436,767.98535
791.3553,777.6557,785.7143,762.74725
785.31134,777.25275,785.7143,787.326
720.84247,715.2015,728.0952,724.4689
646.7033,641.06226,652.74725,646.30035
636.63007,636.63007,636.2271,638.24176
630.989,639.45056,634.61536,627.3626
786.1172,765.9707,786.52014,778.0586
630.989,641.8681,642.27106,622.1245
651.13556,653.1502,650.7326,647.50916
657.1795,657.1795,660.80585,654.35895
653.95605,664.43225,668.46155,649.12085
659.19415,666.8498,669.2674,649.12085
672.0879,680.14655,671.685,680.14655
676.9231,682.96704,679.7436,687.3993
666.4469,670.07324,668.86444,658.3883
688.60803,693.8461,699.0842,678.5348
700.696,705.12823,705.5311,685.78754
708.7546,701.0989,704.3223,705.5311
682.1612,685.38464,691.4286,685.38464
699.4872,704.7253,700.293,717.2161
698.2784,710.7692,705.9341,699.89014
721.6484,709.9634,718.022,693.0403
726.8865,713.9927,725.6777,714.7985
721.2454,723.2601,727.6923,727.28937
725.6777,728.0952,723.2601,738.5714
726.08057,727.28937,724.87177,732.52747
720.0366,730.9158,732.9304,712.381
731.7216,731.31866,735.7509,722.8571
737.3626,734.1392,737.76556,747.4359
729.304,734.94507,740.18317,742.1978
733.73627,748.6447,745.42126,727.28937
740.18317,756.30035,756.30035,734.1392
742.6007,747.03296,761.53845,734.5421
739.7802,747.03296,753.47986,735.7509
739.7802,757.9121,750.2564,745.42126
738.97437,758.315,751.4652,736.9597
743.00366,759.5238,755.09155,715.2015
745.42126,765.9707,763.1502,741.79486
749.85345,759.92676,767.98535,770.40295
752.674,756.7033,768.7912,759.5238
753.0769,757.50916,767.1795,755.4945
753.0769,763.95605,768.3883,745.82416
753.47986,770.80585,766.3736,743.8095
756.7033,762.74725,764.7619,771.6117
770,756.30035,770.80585,781.28204
770.80585,760.32965,772.4176,768.7912
771.6117,770.40295,770,777.6557
777.25275,771.6117,775.64105,783.2967
772.8205,770.80585,775.64105,774.43225
780.07324,770,775.2381,778.86444
785.7143,766.77655,774.83514,771.2088
771.6117,767.1795,772.01465,762.74725
764.7619,767.1795,777.25275,770
779.67035,773.22345,778.0586,784.10254
780.07324,774.43225,774.43225,799.81683
773.6264,773.6264,769.19415,789.34064
778.46155,776.8498,769.19415,772.8205
772.01465,777.25275,777.6557,775.64105
774.0293,778.86444,781.28204,792.1612
786.52014,785.31134,784.5055,800.6227
779.2674,788.1319,792.5641,774.0293
774.83514,789.7436,785.31134,759.12085
765.9707,786.52014,776.4469,770.80585
760.7326,781.28204,782.49084,776.8498
768.3883,786.1172,786.52014,789.7436
771.2088,789.34064,788.1319,796.1905
772.01465,787.72894,791.3553,770.80585
767.98535,788.5348,791.75824,751.8681
772.4176,796.99634,789.34064,775.2381
788.1319,799.41394,788.1319,801.8315
784.90845,795.78754,792.96704,800.6227
777.6557,794.57874,795.78754,781.28204
779.2674,793.7729,795.78754,778.86444
782.49084,793.36993,799.011,790.54944
782.8938,792.5641,796.5934,797.3993
782.49084,788.93774,791.3553,799.011
776.04395,784.5055,782.49084,786.1172
771.2088,784.10254,782.8938,771.2088
775.2381,783.2967,790.14655,782.0879
783.2967,782.49084,790.14655,800.2198
780.4762,780.4762,784.90845,796.1905
780.07324,781.685,783.2967,789.34064
778.0586,779.2674,784.90845,790.14655
785.31134,780.4762,784.90845,786.9231
787.72894,782.8938,784.10254,799.81683
778.46155,784.5055,786.1172,798.20514
776.8498,782.0879,789.34064,776.8498
778.0586,783.2967,789.34064,773.22345
781.685,790.54944,790.54944,788.1319
788.1319,792.96704,793.36993,807.8755
790.9524,791.3553,789.34064,798.60803
788.5348,792.96704,793.7729,782.0879
782.49084,793.36993,792.96704,776.4469
782.49084,785.7143,791.75824,798.20514
783.69965,796.5934,792.96704,794.57874
795.78754,794.9817,791.3553,797.8022
777.6557,786.9231,796.1905,805.8608
796.99634,786.1172,792.96704,799.011
782.8938,790.14655,786.52014,773.6264
792.1612,783.69965,787.72894,798.20514
799.81683,784.5055,789.7436,791.75824
798.20514,781.28204,790.9524,799.81683
787.72894,778.86444,788.5348,816.7399
797.3993,778.0586,792.5641,780.4762
799.011,773.6264,791.75824,809.0842
809.89014,780.4762,793.7729,832.8571
799.41394,776.8498,786.9231,823.1868
793.7729,774.83514,782.8938,813.5165
799.011,783.2967,782.0879,806.6667
803.8461,785.31134,785.7143,811.0989
803.0403,792.1612,789.7436,824.7985
805.4579,793.36993,785.7143,820.7692
810.293,797.3993,786.1172,795.78754
801.8315,798.60803,791.75824,790.9524
801.4286,790.54944,794.9817,801.4286
801.4286,787.72894,790.9524,813.91943
790.9524,781.28204,787.326,811.9048
778.86444,781.28204,790.54944,782.49084
781.28204,782.8938,797.3993,766.3736
780.87915,788.93774,803.8461,784.90845
775.2381,799.41394,805.8608,808.68134
784.10254,799.41394,804.2491,786.52014
780.87915,803.0403,803.44324,799.41394
773.22345,799.011,812.71063,791.75824
769.59705,807.8755,809.4872,795.78754
775.64105,806.26373,805.8608,791.3553
778.86444,792.96704,809.89014,786.52014
771.6117,808.68134,802.6374,783.2967
771.6117,805.05493,800.6227,785.31134
776.4469,794.57874,803.0403,786.52014
782.0879,795.78754,807.0696,794.17584
780.07324,792.96704,800.2198,798.20514
772.8205,790.9524,790.9524,779.2674
773.6264,789.7436,792.1612,767.5824
776.04395,790.54944,796.5934,775.64105
780.87915,795.78754,796.1905,794.9817
774.43225,790.9524,801.8315,793.36993
778.0586,792.5641,800.6227,776.4469
777.25275,798.60803,795.78754,763.5531
775.64105,797.3993,797.3993,774.43225
790.14655,796.5934,802.6374,789.34064
787.72894,804.2491,807.8755,796.1905
799.41394,804.65204,801.02563,782.8938
789.7436,797.8022,805.4579,778.0586
786.1172,791.75824,802.6374,791.75824
792.5641,806.26373,803.8461,795.78754
788.93774,796.99634,805.05493,799.011
790.9524,794.17584,808.68134,806.26373
784.90845,786.52014,798.60803,796.99634
785.7143,784.10254,797.3993,790.54944
806.6667,784.90845,798.60803,812.3077
811.50183,786.9231,805.05493,820.7692
795.78754,784.5055,806.6667,814.7253
803.0403,779.2674,796.5934,818.3516
798.60803,770,796.99634,806.26373
791.75824,767.98535,792.5641,795.78754
801.4286,779.67035,787.72894,819.15753
809.0842,772.4176,788.5348,828.8278
805.8608,765.16486,788.93774,815.9341
802.6374,767.1795,787.72894,806.6667
812.3077,773.6264,786.52014,821.1722
813.91943,774.43225,786.9231,837.28937
809.0842,771.6117,785.7143,820.3663
792.96704,765.56775,784.90845,811.0989
798.60803,763.95605,788.5348,819.9634
811.0989,767.5824,792.5641,825.2015
811.0989,773.22345,791.75824,831.6484
808.2784,775.64105,785.7143,835.6777
813.1135,775.64105,788.93774,809.4872
809.0842,776.04395,784.10254,829.6337
817.1429,771.6117,778.86444,825.6044
806.6667,767.98535,785.31134,801.4286
821.978,779.67035,784.5055,838.9011
816.7399,775.2381,786.9231,839.707
815.5311,767.5824,780.87915,815.5311
817.9487,771.2088,781.685,812.3077
826.4103,776.8498,785.7143,843.73627
830.84247,769.19415,782.49084,844.5421
824.3956,763.95605,787.72894,828.4249
820.3663,765.56775,784.5055,817.9487
817.1429,764.7619,777.6557,824.7985
825.2015,762.3443,769.59705,840.9158
832.8571,759.5238,769.19415,836.08057
834.87177,765.9707,782.49084,837.28937
833.663,767.5824,780.4762,830.0366
825.6044,765.16486,778.46155,826.8132
829.6337,767.1795,780.87915,845.7509
822.7839,766.3736,778.46155,845.7509
812.71063,764.35895,776.04395,823.1868
819.9634,769.59705,780.07324,824.7985
817.5458,770.40295,782.0879,829.2308
813.1135,765.16486,781.685,829.6337
815.5311,768.7912,782.8938,836.4835
810.696,761.9414,777.25275,825.2015
801.02563,752.27106,775.64105,809.89014
796.99634,763.95605,774.83514,814.3223
801.02563,772.01465,778.46155,831.2454
807.0696,771.6117,784.10254,828.8278
817.9487,773.22345,783.2967,825.2015
816.337,774.0293,788.5348,819.5604
807.47253,776.04395,785.7143,808.68134
803.8461,772.8205,780.07324,828.4249
808.68134,770.80585,778.46155,820.7692
801.02563,777.25275,778.0586,816.7399
809.0842,778.0586,778.0586,814.7253
807.47253,778.0586,781.28204,812.3077
813.1135,771.6117,787.72894,813.1135
812.71063,772.8205,787.72894,828.8278
806.6667,772.8205,781.28204,833.2601
808.68134,772.01465,776.4469,814.3223
810.696,776.4469,773.6264,798.20514
813.1135,777.6557,776.4469,798.20514
811.0989,770.80585,777.6557,807.47253
811.0989,765.16486,780.07324,817.5458
809.4872,771.6117,779.67035,812.3077
808.68134,779.2674,775.2381,804.65204
811.0989,775.2381,774.0293,815.9341
811.9048,766.3736,774.43225,818.3516
817.5458,763.95605,779.2674,823.5897
815.5311,764.35895,772.4176,827.2161
813.91943,774.0293,779.67035,799.011
803.44324,777.25275,776.8498,798.60803
798.60803,778.86444,775.64105,812.71063
795.38464,775.2381,779.2674,814.3223
792.5641,775.2381,784.90845,809.89014
780.87915,781.28204,785.31134,792.5641
776.04395,784.90845,785.7143,794.9817
787.326,794.9817,788.5348,803.44324
783.2967,799.41394,795.78754,805.8608
782.8938,796.5934,795.38464,799.81683
778.46155,794.17584,796.99634,785.7143
759.5238,789.34064,796.5934,786.1172
758.71796,783.69965,785.31134,802.6374
774.43225,780.87915,786.52014,801.02563
781.685,780.07324,785.31134,784.90845
781.685,786.1172,788.1319,774.83514
780.07324,789.7436,790.14655,773.6264
783.69965,782.0879,788.93774,789.34064
795.38464,782.0879,796.1905,800.6227
801.02563,792.5641,797.3993,811.9048
796.5934,788.1319,788.5348,788.93774
792.96704,783.2967,780.07324,778.86444
807.0696,784.10254,785.31134,820.3663
810.293,781.685,790.54944,820.3663
802.6374,782.49084,785.31134,803.8461
799.011,791.3553,783.2967,799.41394
801.4286,790.14655,780.4762,791.3553
799.81683,779.67035,780.07324,797.8022
801.8315,787.72894,788.1319,804.65204
802.23444,796.1905,798.20514,800.2198
786.9231,792.1612,794.17584,787.72894
776.4469,784.90845,788.5348,772.4176
777.25275,783.2967,793.36993,780.07324
784.5055,793.7729,804.65204,798.20514
790.9524,793.36993,800.2198,794.57874
793.7729,784.10254,792.1612,784.5055
786.9231,785.31134,793.7729,788.5348
786.1172,788.5348,795.38464,795.38464
786.9231,785.7143,793.36993,801.4286
793.7729,783.69965,792.96704,808.2784
796.5934,780.4762,795.38464,800.6227
790.9524,774.43225,790.54944,785.7143
785.7143,774.83514,790.9524,786.52014
783.2967,778.86444,788.5348,799.81683
796.5934,779.2674,781.685,807.8755
813.5165,778.0586,785.31134,812.3077
803.8461,780.07324,782.0879,799.011
797.8022,778.86444,783.2967,786.52014
800.6227,784.10254,792.5641,812.3077
800.2198,788.1319,792.96704,813.91943
806.26373,785.7143,792.96704,808.68134
800.2198,786.9231,788.5348,803.0403
799.011,782.49084,788.93774,796.99634
802.23444,780.07324,791.3553,813.5165
795.38464,778.0586,789.34064,819.9634
788.93774,780.07324,793.36993,799.81683
784.5055,794.17584,791.3553,778.46155
780.87915,790.54944,782.49084,776.04395
786.52014,782.0879,784.10254,782.8938
786.9231,794.57874,787.326,796.99634
779.67035,796.1905,790.14655,801.8315
775.64105,793.7729,791.75824,780.07324
770.40295,792.5641,792.96704,764.7619
765.9707,792.1612,794.57874,778.46155
770,791.3553,791.3553,796.1905
781.28204,792.1612,792.1612,796.1905
788.5348,796.99634,793.36993,794.9817
784.10254,791.3553,788.1319,786.9231
782.8938,791.75824,783.69965,789.34064
783.69965,791.3553,782.8938,801.02563
782.49084,787.72894,787.72894,802.6374
789.7436,786.9231,793.7729,805.8608
786.9231,784.5055,795.38464,784.90845
788.1319,785.31134,786.52014,780.87915
797.8022,788.5348,782.49084,803.8461
801.4286,786.52014,788.93774,815.9341
799.41394,789.7436,788.93774,797.8022
794.57874,794.17584,786.9231,785.31134
799.81683,786.9231,793.36993,814.3223
803.44324,791.75824,795.38464,820.3663
793.7729,792.5641,797.8022,803.0403
784.10254,792.5641,793.7729,787.72894
781.685,793.36993,786.1172,780.87915
792.96704,784.90845,791.3553,801.8315
785.31134,800.2198,802.6374,804.65204
778.46155,803.0403,802.6374,786.1172
783.69965,796.99634,795.78754,786.9231
767.1795,802.23444,801.4286,769.19415
767.5824,799.011,794.57874,782.8938
766.3736,801.8315,795.38464,784.10254
778.0586,801.02563,797.8022,781.685
778.46155,803.0403,799.41394,784.10254
772.8205,804.65204,798.60803,772.8205
783.69965,796.1905,801.8315,796.99634
778.46155,793.7729,794.17584,806.26373
786.52014,802.23444,799.41394,774.43225
789.34064,793.36993,792.96704,802.23444
789.7436,799.41394,790.54944,790.54944
792.96704,799.41394,795.78754,787.72894
799.81683,799.011,807.0696,802.6374
792.96704,797.8022,794.9817,796.1905
790.9524,793.36993,789.7436,791.3553
794.17584,788.5348,790.9524,799.011
785.31134,794.57874,790.54944,784.90845
794.9817,806.6667,796.1905,789.34064
814.3223,805.05493,803.0403,817.5458
804.65204,797.8022,806.26373,815.12823
790.14655,796.1905,802.23444,787.72894
780.87915,801.02563,799.011,780.87915
781.685,799.41394,795.38464,763.5531
780.4762,803.8461,806.26373,803.8461
784.10254,809.89014,808.68134,787.72894
783.69965,809.89014,807.47253,766.3736
784.90845,807.8755,807.8755,766.3736
788.93774,808.2784,813.1135,776.04395
782.8938,812.71063,816.337,794.9817
783.2967,818.3516,818.3516,796.5934
777.6557,815.5311,814.3223,785.7143
776.04395,809.89014,810.696,775.64105
783.2967,807.8755,808.2784,772.8205
782.49084,810.293,805.4579,795.78754
782.8938,810.293,803.44324,799.81683
784.10254,801.02563,804.65204,784.5055
783.69965,796.5934,808.2784,786.9231
788.93774,799.81683,808.2784,797.3993
793.36993,806.26373,807.47253,813.1135
785.31134,810.696,803.0403,815.12823
778.86444,806.6667,802.6374,806.6667
772.8205,798.60803,800.2198,790.14655
771.6117,797.3993,802.6374,777.6557
782.0879,800.2198,808.68134,799.81683
782.8938,801.4286,794.17584,791.75824
788.5348,801.02563,803.44324,806.6667
776.8498,803.8461,799.41394,767.1795
781.28204,806.6667,796.1905,780.4762
773.6264,798.20514,792.1612,790.54944
785.31134,804.2491,794.17584,805.8608
786.9231,805.8608,799.011,795.38464
781.28204,805.8608,797.3993,792.5641
773.22345,805.05493,796.1905,784.10254
772.8205,807.0696,794.57874,777.25275
774.83514,813.5165,796.99634,785.31134
770.40295,812.3077,797.8022,788.93774
769.19415,805.4579,792.1612,786.1172
772.01465,805.8608,796.99634,778.86444
767.5824,804.65204,804.65204,794.17584
778.0586,805.4579,809.89014,797.3993
792.1612,806.6667,813.91943,792.5641
786.1172,808.68134,807.0696,808.2784
777.6557,807.0696,799.41394,782.0879
780.4762,794.9817,799.81683,777.6557
785.31134,795.38464,796.1905,805.8608
789.34064,800.2198,796.5934,814.7253
789.34064,796.5934,801.02563,798.60803
788.5348,794.57874,803.8461,786.9231
791.75824,801.4286,799.011,805.05493
794.57874,799.81683,790.54944,817.5458
796.5934,784.10254,788.5348,811.0989
792.1612,787.326,791.3553,802.6374
782.0879,794.9817,792.5641,791.75824
788.5348,789.7436,792.5641,802.23444
798.60803,788.1319,794.9817,816.7399
801.8315,787.72894,792.5641,812.3077
802.6374,785.7143,794.17584,811.0989
792.96704,790.14655,795.38464,801.4286
790.9524,789.34064,793.36993,799.81683
793.7729,783.69965,792.96704,807.47253
794.57874,788.1319,797.8022,824.3956
794.9817,791.3553,798.20514,809.4872
790.9524,793.36993,795.38464,782.8938
789.7436,796.1905,799.81683,788.1319
789.7436,791.3553,799.81683,806.6667
787.72894,789.7436,800.6227,812.3077
785.31134,793.36993,805.4579,808.68134
779.67035,794.9817,795.78754,783.2967
794.9817,804.2491,802.23444,805.8608
797.3993,799.41394,801.8315,809.89014
787.326,792.5641,796.99634,806.26373
780.07324,793.36993,798.60803,790.9524
790.54944,793.7729,793.7729,795.78754
791.3553,796.99634,799.011,789.7436
791.75824,804.65204,802.23444,802.6374
795.78754,809.4872,807.8755,824.3956
804.2491,808.68134,809.0842,822.7839
807.8755,807.47253,801.02563,796.99634
807.47253,805.4579,803.44324,785.31134
809.89014,807.47253,805.4579,813.5165
794.57874,799.81683,792.5641,805.05493
793.36993,792.96704,800.6227,805.05493
806.6667,801.8315,811.50183,816.7399
801.4286,796.1905,801.8315,819.5604
797.8022,795.78754,794.9817,810.293
784.5055,798.20514,797.8022,802.6374
788.93774,794.17584,793.7729,796.99634
807.0696,799.81683,800.6227,819.5604
794.17584,810.696,804.2491,805.05493
791.3553,807.8755,807.8755,792.96704
791.3553,807.47253,801.4286,813.91943
788.5348,811.50183,803.44324,804.2491
781.28204,816.7399,805.4579,785.7143
778.46155,813.5165,800.6227,806.26373
786.1172,806.6667,800.2198,807.47253
786.9231,803.8461,801.8315,795.38464
784.5055,806.6667,803.8461,794.17584
786.52014,809.89014,804.2491,793.7729
792.1612,808.2784,807.0696,790.54944
788.5348,802.23444,809.4872,796.99634
796.99634,801.4286,801.8315,812.71063
803.0403,801.02563,798.20514,818.3516
787.72894,794.17584,798.60803,783.69965
801.02563,792.96704,797.8022,799.011
799.41394,801.4286,796.1905,821.5751
791.75824,794.57874,798.60803,823.1868
805.4579,792.5641,800.6227,803.8461
801.4286,794.17584,796.5934,796.99634
794.9817,800.2198,801.02563,800.2198
798.20514,784.5055,786.1172,801.8315
795.78754,790.14655,786.9231,814.3223
797.8022,795.78754,796.1905,820.3663
796.99634,794.57874,800.2198,814.3223
780.07324,798.60803,796.5934,788.5348
782.49084,803.8461,803.44324,779.67035
786.9231,802.23444,810.696,799.41394
775.64105,804.65204,803.8461,796.99634
767.98535,812.3077,801.8315,785.7143
769.19415,812.71063,808.68134,779.2674
766.3736,810.293,814.3223,760.7326
770.40295,809.0842,809.89014,777.6557
778.86444,803.44324,808.68134,807.0696
785.31134,802.6374,811.50183,803.8461
772.4176,807.47253,809.0842,793.7729
774.83514,796.99634,798.20514,786.1172
767.98535,806.6667,807.47253,786.9231
788.93774,785.7143,788.5348,789.7436
801.02563,787.326,788.5348,795.38464
786.1172,801.02563,785.7143,783.69965
816.337,796.1905,777.25275,815.12823
816.7399,801.02563,784.5055,823.9927
811.50183,800.2198,783.69965,816.7399
812.3077,801.8315,763.5531,796.1905
811.9048,805.8608,771.6117,823.1868
821.5751,803.8461,765.16486,809.0842
801.02563,801.02563,778.46155,789.34064
811.50183,810.696,764.7619,817.1429
799.41394,807.47253,765.56775,805.4579
813.5165,813.5165,773.22345,818.3516
801.8315,814.3223,772.4176,804.65204
792.1612,809.0842,772.01465,797.3993
804.2491,815.12823,776.04395,809.89014
803.8461,811.50183,774.0293,820.3663
802.6374,804.65204,772.8205,817.9487
804.2491,809.0842,774.43225,807.8755
799.011,806.6667,776.4469,801.02563
801.4286,803.0403,774.0293,798.60803
811.0989,802.6374,771.2088,810.293
814.7253,802.23444,774.43225,815.9341
812.71063,794.9817,776.04395,801.4286
808.2784,791.3553,775.64105,806.6667
813.5165,794.17584,780.07324,830.0366
820.3663,791.3553,783.69965,835.2747
808.2784,787.72894,781.685,819.9634
794.9817,781.28204,772.01465,809.4872
798.60803,774.0293,763.1502,805.8608
825.2015,789.7436,776.8498,836.4835
823.5897,798.20514,776.4469,830.0366
814.3223,791.3553,774.43225,814.3223
814.7253,776.4469,767.98535,816.337
806.6667,792.1612,779.67035,806.6667
799.011,790.9524,784.90845,822.381
805.4579,795.38464,782.0879,817.9487
799.011,788.93774,788.93774,810.293
805.4579,794.57874,780.87915,791.75824
796.1905,794.9817,771.6117,790.54944
793.7729,784.90845,771.6117,805.8608
796.1905,784.90845,776.04395,812.71063
797.8022,790.14655,785.31134,813.1135
795.78754,789.34064,793.7729,808.68134
792.96704,789.7436,794.57874,805.05493
796.5934,797.8022,787.326,800.6227
797.8022,792.96704,786.9231,813.91943
797.8022,789.34064,788.1319,823.9927
800.6227,797.3993,784.90845,805.8608
794.9817,794.17584,786.52014,794.57874
796.99634,794.17584,790.54944,800.6227
811.50183,793.36993,793.36993,821.978
811.9048,788.5348,789.34064,819.9634
809.89014,790.14655,786.9231,802.6374
812.3077,786.9231,788.1319,798.20514
806.6667,778.0586,786.1172,805.05493
803.0403,780.4762,788.5348,821.5751
807.8755,786.52014,789.34064,825.2015
799.011,786.9231,785.31134,819.5604
791.3553,786.1172,783.69965,793.7729
805.4579,784.5055,788.5348,795.38464
808.2784,787.326,794.9817,814.3223
800.6227,796.1905,795.38464,816.7399
797.3993,803.0403,797.8022,808.2784
799.81683,807.47253,803.44324,790.14655
794.57874,807.47253,809.0842,784.10254
784.5055,808.68134,815.5311,789.7436
779.2674,814.7253,815.5311,786.52014
766.3736,812.3077,811.9048,773.6264
759.92676,809.89014,805.4579,764.7619
758.71796,812.3077,805.4579,746.63007
757.50916,816.7399,804.65204,753.8828
767.1795,812.71063,797.8022,775.2381
769.59705,807.0696,800.6227,770
763.5531,809.89014,800.2198,765.56775
758.315,807.47253,798.20514,768.3883
763.5531,804.2491,802.23444,778.0586
774.43225,805.4579,807.0696,786.9231
778.0586,805.05493,801.4286,787.72894
785.31134,802.23444,796.5934,781.685
788.1319,801.8315,798.20514,778.0586
790.14655,807.0696,798.20514,789.34064
797.3993,802.23444,794.9817,803.44324
799.011,796.99634,796.5934,802.23444
798.20514,803.0403,796.1905,791.75824
792.1612,800.2198,792.1612,783.69965
793.7729,801.02563,797.8022,790.14655
805.4579,804.65204,799.81683,801.02563
801.8315,799.011,794.9817,795.78754
796.99634,795.78754,792.5641,792.5641
794.17584,800.6227,801.4286,788.93774
793.7729,800.2198,803.44324,802.6374
798.60803,805.4579,799.011,813.1135
800.2198,802.6374,794.9817,809.0842
789.34064,793.36993,789.7436,805.8608
779.67035,794.17584,791.3553,781.685
786.9231,790.14655,788.1319,780.4762
801.02563,784.90845,790.14655,818.7546
802.6374,781.28204,783.2967,803.0403
807.0696,783.69965,783.69965,796.99634
807.8755,778.46155,779.2674,815.12823
800.6227,775.64105,775.64105,795.78754
797.3993,790.54944,789.7436,813.5165
811.9048,778.46155,778.46155,822.381
819.5604,782.8938,785.7143,836.08057
809.0842,776.8498,779.67035,798.60803
814.3223,778.46155,780.07324,807.0696
817.5458,780.87915,777.25275,824.7985
813.91943,788.1319,781.28204,819.15753
807.8755,790.14655,786.52014,815.12823
807.8755,789.34064,792.96704,805.8608
799.81683,791.3553,792.96704,799.81683
795.38464,795.78754,789.34064,813.1135
803.8461,793.7729,790.14655,818.3516
801.02563,792.96704,793.7729,806.6667
802.6374,796.1905,799.41394,791.3553
803.8461,795.78754,794.9817,788.5348
799.011,792.5641,787.326,796.5934
803.44324,792.1612,788.93774,806.6667
800.2198,789.7436,793.36993,806.6667
804.2491,790.54944,796.1905,801.8315
809.4872,791.75824,792.96704,799.41394
801.02563,789.7436,790.9524,812.71063
803.0403,787.326,793.7729,828.4249
803.44324,782.0879,788.93774,811.9048
798.60803,785.7143,783.69965,792.1612
794.17584,788.93774,792.96704,793.36993
796.1905,786.52014,797.8022,819.9634
797.8022,783.2967,792.1612,835.6777
798.60803,793.36993,796.1905,814.3223
800.6227,795.38464,794.17584,790.54944
792.96704,782.49084,787.72894,789.34064
792.96704,807.0696,791.3553,803.8461
797.3993,800.6227,794.57874,800.6227
796.1905,805.8608,804.2491,799.81683
788.1319,802.23444,800.2198,780.07324
793.36993,801.8315,792.1612,803.44324
783.2967,799.81683,795.78754,780.4762
780.87915,801.02563,799.41394,805.8608
786.1172,799.41394,803.0403,794.9817
789.7436,798.20514,793.7729,783.69965
788.1319,792.96704,793.36993,779.67035
786.1172,791.75824,801.02563,778.0586
788.1319,795.38464,796.5934,794.57874
789.7436,782.49084,789.7436,805.05493
785.7143,777.25275,786.9231,801.02563
780.07324,784.10254,784.5055,786.1172
779.2674,780.87915,779.67035,779.2674
794.17584,778.46155,781.685,801.02563
798.20514,788.1319,788.1319,816.7399
792.96704,790.54944,787.326,804.65204
791.75824,781.685,782.8938,783.69965
788.5348,784.90845,784.90845,778.0586
783.69965,788.93774,790.14655,792.1612
789.34064,794.17584,793.36993,794.17584
784.90845,803.0403,795.38464,791.3553
770,799.41394,792.5641,771.2088
770.80585,807.47253,796.99634,757.9121
778.0586,821.1722,804.2491,771.6117
775.2381,826.8132,803.44324,774.83514
767.5824,831.2454,806.26373,766.3736
769.59705,819.15753,814.7253,768.3883
770,819.5604,819.15753,766.3736
755.09155,839.304,816.7399,757.50916
754.68866,834.87177,816.337,763.95605
770.40295,834.87177,814.3223,773.22345
758.71796,836.4835,812.3077,759.12085
750.65936,816.7399,815.5311,749.0476
761.13556,817.5458,808.2784,743.4066
761.9414,829.6337,796.5934,753.47986
781.28204,835.2747,795.38464,780.4762
789.34064,845.34796,794.57874,775.2381
772.01465,830.0366,778.46155,756.30035
787.326,825.6044,774.0293,760.7326
800.2198,833.2601,778.0586,776.4469
810.696,825.2015,774.0293,804.2491
813.91943,833.663,774.43225,794.9817
794.9817,836.08057,770,759.5238
806.6667,830.0366,764.35895,784.5055
818.7546,833.2601,761.13556,808.2784
812.3077,837.28937,754.68866,782.8938
814.3223,836.08057,754.68866,781.685
817.1429,826.0073,759.12085,789.34064
807.8755,827.2161,759.92676,793.36993
806.6667,826.4103,756.30035,813.91943
810.293,824.3956,756.30035,794.17584
805.05493,826.8132,760.32965,779.2674
805.05493,825.6044,763.1502,786.1172
800.6227,820.7692,768.3883,784.10254
808.68134,818.7546,765.56775,791.75824
799.011,818.7546,768.3883,805.4579
807.0696,818.3516,769.19415,784.90845
808.68134,810.293,771.2088,783.2967
809.0842,819.9634,763.95605,803.44324
810.293,806.6667,770.80585,806.6667
813.5165,814.3223,772.01465,818.7546
811.9048,802.6374,771.6117,816.337
799.81683,787.326,766.77655,799.011
794.57874,789.34064,774.0293,786.9231
807.47253,790.14655,773.22345,798.60803
819.5604,796.5934,768.3883,814.7253
818.3516,793.7729,774.0293,805.05493
813.91943,788.93774,770.40295,795.78754
805.8608,796.99634,774.0293,800.6227
786.1172,797.3993,776.8498,795.38464
785.7143,793.36993,768.7912,783.69965
790.54944,792.5641,770.80585,780.07324
788.93774,799.41394,777.25275,771.6117
785.31134,801.8315,780.4762,767.98535
780.87915,807.47253,782.8938,780.07324
775.64105,812.71063,788.5348,784.5055
772.4176,813.5165,789.34064,774.83514
769.19415,823.1868,791.3553,753.8828
767.1795,828.4249,794.57874,739.7802
767.5824,829.6337,798.20514,768.3883
780.87915,829.2308,795.38464,798.60803
790.54944,823.9927,796.99634,782.0879
779.67035,823.5897,807.0696,759.5238
772.4176,822.381,807.0696,752.27106
778.86444,823.1868,803.8461,770.80585
787.72894,820.7692,803.44324,796.5934
787.326,812.71063,795.78754,792.5641
797.8022,809.0842,796.99634,785.7143
799.41394,799.81683,795.38464,782.0879
790.9524,795.38464,790.9524,784.90845
789.34064,802.23444,789.7436,774.83514
799.81683,799.41394,786.52014,784.5055
803.0403,792.5641,791.3553,799.011
790.54944,786.1172,794.9817,782.8938
792.1612,788.5348,790.14655,784.10254
798.60803,792.96704,790.9524,807.0696
798.20514,794.9817,793.36993,811.50183
790.9524,792.96704,789.34064,792.96704
788.5348,790.54944,791.3553,776.04395
784.90845,796.1905,792.1612,767.1795
786.9231,802.23444,794.17584,782.8938
785.7143,812.3077,799.41394,783.2967
790.14655,818.3516,803.44324,771.6117
786.52014,820.3663,807.47253,771.6117
767.98535,815.9341,810.696,766.77655
765.56775,811.50183,818.7546,765.56775
771.2088,821.5751,823.5897,771.2088
774.0293,832.4542,821.5751,779.2674
763.1502,834.0659,825.6044,752.27106
761.9414,827.2161,821.1722,747.4359
772.4176,824.7985,818.3516,778.0586
774.43225,821.978,823.9927,790.54944
768.3883,817.1429,813.91943,774.0293
758.315,818.7546,805.05493,757.1062
760.32965,812.71063,808.2784,761.13556
767.1795,807.8755,806.26373,776.8498
774.43225,810.696,799.81683,785.7143
786.52014,805.8608,803.0403,787.326
790.14655,802.23444,802.23444,770.80585
780.07324,802.23444,800.6227,767.1795
784.5055,802.23444,814.3223,796.5934
792.5641,804.65204,811.50183,805.4579
782.49084,798.60803,796.99634,789.34064
784.90845,803.44324,801.02563,771.2088
779.67035,807.47253,806.26373,771.2088
766.77655,800.2198,808.68134,793.36993
771.2088,801.02563,811.50183,792.1612
778.0586,801.8315,807.47253,786.1172
779.67035,802.6374,798.20514,782.49084
777.25275,808.68134,799.41394,770.80585
772.8205,813.5165,804.2491,769.19415
768.3883,817.1429,812.71063,786.52014
775.64105,819.15753,820.7692,799.011
776.04395,812.3077,823.5897,779.2674
770,813.91943,823.5897,764.35895
765.9707,815.9341,815.9341,762.3443
776.04395,807.47253,815.12823,772.01465
786.1172,809.89014,820.7692,787.72894
780.4762,817.5458,819.15753,780.4762
780.4762,817.1429,813.91943,770.80585
784.10254,815.5311,809.4872,777.25275
781.28204,808.68134,813.1135,799.011
773.6264,799.81683,817.1429,800.6227
772.4176,794.9817,809.0842,775.2381
774.83514,795.78754,801.4286,764.7619
781.28204,807.47253,799.011,769.19415
783.2967,798.60803,802.23444,774.0293
782.49084,782.0879,803.8461,790.54944
783.2967,791.3553,805.8608,794.57874
779.2674,789.7436,815.5311,777.25275
776.4469,788.93774,812.71063,769.19415
776.8498,796.1905,802.23444,782.8938
778.86444,790.9524,807.8755,798.20514
775.2381,791.75824,816.7399,793.7729
767.5824,791.3553,816.337,772.8205
768.3883,786.52014,816.7399,759.92676
776.04395,791.3553,821.5751,771.6117
778.0586,800.6227,825.6044,788.5348
781.685,805.8608,829.2308,788.5348
779.2674,806.6667,833.2601,770.80585
767.98535,805.8608,826.8132,755.4945
755.09155,814.7253,831.6484,769.19415
760.32965,806.6667,827.2161,760.32965
765.56775,820.7692,830.4396,769.19415
770.40295,824.7985,835.6777,770.40295
767.98535,826.8132,841.7216,769.19415
756.7033,820.3663,847.76556,760.32965
757.50916,823.1868,852.1978,776.4469
767.98535,830.4396,845.7509,777.6557
745.82416,827.619,835.2747,745.0183
733.3333,813.91943,832.0513,737.3626
750.2564,815.9341,834.87177,751.8681
761.9414,825.2015,838.49817,756.7033
762.74725,822.381,838.9011,758.71796
750.65936,822.7839,832.4542,746.63007
748.6447,817.5458,828.022,744.21246
753.8828,810.293,836.4835,751.8681
753.0769,813.91943,840.5128,753.47986
753.8828,811.9048,822.7839,772.01465
754.68866,818.3516,823.1868,757.1062
749.0476,811.50183,823.5897,738.97437
756.7033,811.9048,831.2454,761.53845
761.13556,810.293,827.2161,769.59705
761.9414,813.1135,828.022,763.95605
750.2564,805.4579,821.1722,755.4945
762.3443,814.7253,823.9927,752.674
768.3883,813.91943,823.5897,762.3443
767.5824,812.3077,823.1868,774.0293
763.5531,809.89014,826.0073,769.59705
770,805.8608,824.3956,758.315
773.6264,809.4872,818.3516,754.2857
769.59705,808.2784,817.5458,753.0769
772.8205,805.8608,829.2308,759.92676
778.86444,799.81683,828.8278,769.19415
775.2381,795.78754,816.7399,764.7619
767.1795,801.8315,813.91943,757.50916
768.7912,806.6667,813.5165,754.2857
772.8205,799.011,811.9048,772.8205
762.74725,796.1905,814.3223,786.1172
768.7912,798.60803,821.5751,778.46155
772.4176,796.99634,825.6044,761.53845
766.3736,805.4579,809.89014,771.2088
770.80585,799.81683,811.50183,771.2088
759.5238,800.2198,818.7546,754.2857
765.9707,799.41394,814.7253,767.5824
776.8498,805.05493,810.293,771.2088
762.3443,810.293,812.3077,763.1502
778.0586,812.71063,815.9341,775.2381
772.01465,807.47253,809.0842,762.74725
781.28204,805.4579,819.5604,783.2967
778.86444,796.1905,816.337,769.19415
770.40295,795.38464,812.3077,751.4652
765.9707,802.23444,814.7253,759.12085
770,803.0403,814.3223,779.67035
776.04395,802.6374,807.8755,786.1172
784.90845,801.4286,810.293,782.0879
780.07324,799.81683,814.7253,761.9414
782.49084,794.9817,818.3516,784.5055
786.1172,792.96704,811.9048,782.8938
770.80585,801.4286,815.5311,763.1502
783.69965,799.011,806.26373,776.04395
779.2674,803.0403,808.68134,763.95605
775.2381,804.2491,807.47253,757.50916
787.72894,805.8608,810.293,774.0293
782.0879,795.78754,812.3077,782.0879
767.98535,789.34064,813.1135,772.4176
775.64105,803.8461,813.5165,760.7326
780.07324,806.26373,809.4872,760.7326
788.5348,806.26373,804.65204,778.46155
800.2198,807.8755,807.47253,797.8022
792.96704,802.6374,814.3223,794.57874
784.90845,801.4286,816.7399,770
782.8938,807.47253,815.5311,763.95605
779.67035,811.0989,819.9634,783.69965
783.69965,803.44324,818.7546,792.1612
787.326,800.2198,811.9048,784.10254
790.54944,807.47253,807.47253,766.3736
787.72894,799.81683,809.4872,764.35895
794.9817,805.05493,806.6667,780.87915
801.02563,804.65204,803.0403,780.4762
796.99634,809.0842,808.2784,783.69965
778.0586,803.8461,821.1722,782.0879
775.64105,797.3993,817.9487,773.22345
769.59705,793.7729,809.89014,778.0586
769.19415,796.99634,805.8608,787.326
780.87915,805.4579,797.3993,767.98535
783.69965,801.02563,794.17584,748.24176
782.49084,795.38464,800.2198,747.8388
778.86444,801.02563,804.65204,760.32965
776.04395,797.3993,802.23444,768.3883
778.0586,794.57874,800.6227,766.77655
779.67035,800.2198,806.6667,767.98535
779.67035,806.6667,811.0989,757.1062
786.52014,805.05493,804.2491,756.7033
796.5934,803.0403,804.65204,778.46155
799.41394,807.0696,815.12823,791.75824
796.5934,805.05493,817.9487,786.1172
796.5934,812.3077,815.12823,784.90845
790.9524,815.9341,813.5165,788.5348
791.3553,810.293,811.0989,786.52014
802.23444,814.3223,813.1135,786.1172
805.8608,817.1429,811.0989,787.326
793.7729,809.89014,804.65204,776.8498
787.72894,805.05493,810.696,775.64105
795.38464,812.71063,814.3223,783.2967
802.23444,814.7253,813.5165,796.5934
796.1905,812.71063,807.8755,789.34064
792.96704,809.4872,802.6374,766.3736
796.1905,805.4579,807.47253,772.01465
794.57874,803.44324,809.0842,773.6264
795.78754,801.4286,813.5165,785.31134
803.44324,807.0696,818.3516,794.9817
794.9817,811.50183,812.3077,779.67035
774.43225,811.0989,805.05493,770.40295
782.8938,813.1135,801.4286,782.8938
793.36993,809.89014,800.2198,790.9524
784.5055,806.6667,803.44324,788.93774
791.3553,803.44324,807.47253,776.8498
788.93774,801.8315,803.8461,769.19415
786.1172,805.8608,805.4579,779.2674
792.1612,804.65204,807.0696,783.2967
796.99634,805.4579,804.65204,788.5348
789.7436,806.26373,805.4579,778.86444
780.07324,808.68134,803.8461,766.3736
792.1612,811.9048,801.4286,786.52014
795.38464,805.05493,798.60803,803.0403
781.685,799.81683,794.17584,792.5641
785.31134,809.89014,796.99634,772.01465
799.81683,816.337,803.44324,792.1612
802.23444,804.65204,801.8315,792.1612
809.4872,807.8755,803.0403,794.9817
802.23444,807.8755,799.011,794.17584
786.52014,807.8755,794.9817,772.01465
776.04395,814.3223,802.23444,776.8498
778.46155,805.05493,797.8022,767.5824
794.9817,807.8755,790.14655,766.77655
787.72894,811.0989,789.7436,772.8205
778.0586,796.5934,791.3553,767.5824
774.83514,794.57874,794.9817,764.35895
778.86444,805.4579,798.20514,770
786.52014,805.8608,801.4286,780.4762
783.69965,800.6227,807.0696,783.69965
785.31134,796.1905,800.2198,787.326
776.4469,807.47253,811.50183,772.4176
775.2381,812.71063,798.20514,772.01465
784.90845,809.89014,797.8022,786.1172
788.93774,797.3993,801.02563,795.38464
785.31134,799.41394,804.2491,785.7143
784.10254,800.6227,801.8315,778.86444
787.326,799.41394,799.41394,780.07324
788.5348,801.4286,807.0696,790.54944
786.9231,793.36993,800.6227,796.5934
790.54944,799.81683,794.57874,776.04395
797.3993,813.5165,805.8608,774.0293
795.78754,805.4579,802.6374,780.87915
791.3553,791.3553,790.9524,788.93774
793.7729,787.326,793.7729,798.60803
797.8022,788.1319,798.60803,793.7729
790.9524,794.57874,803.8461,778.0586
790.14655,805.4579,813.91943,779.67035
787.72894,801.8315,808.68134,795.78754
792.5641,795.38464,806.6667,809.4872
805.4579,800.2198,810.696,807.8755
806.6667,807.8755,801.8315,785.7143
793.7729,807.0696,801.8315,774.0293
797.3993,799.41394,806.6667,790.54944
805.05493,796.1905,805.8608,807.0696
799.011,801.4286,802.6374,805.4579
801.8315,803.8461,801.4286,803.8461
804.2491,811.9048,803.0403,796.99634
792.1612,809.4872,803.0403,792.96704
792.5641,800.6227,812.3077,810.293
805.8608,809.0842,815.9341,811.0989
803.0403,807.47253,808.68134,788.1319
796.1905,799.41394,804.2491,776.8498
799.41394,806.26373,806.26373,785.7143
811.50183,814.3223,810.696,798.60803
815.9341,803.0403,798.60803,804.65204
803.8461,797.3993,793.36993,801.02563
786.1172,799.41394,796.99634,780.4762
789.34064,802.6374,800.2198,787.326
793.36993,806.26373,803.0403,805.4579
794.17584,802.23444,797.8022,803.8461
789.34064,794.57874,794.9817,788.5348
786.9231,795.38464,794.57874,770.80585
794.17584,799.011,792.96704,782.49084
802.6374,798.60803,794.9817,802.23444
790.9524,799.41394,809.4872,798.60803
790.14655,799.81683,805.8608,792.96704
801.8315,796.5934,800.2198,794.9817
793.36993,799.011,805.4579,770.40295
796.5934,803.8461,804.65204,805.8608
802.6374,800.2198,810.293,796.5934
803.8461,798.60803,814.3223,799.41394
799.011,805.05493,809.0842,796.5934
786.1172,804.65204,806.6667,790.9524
782.49084,805.4579,801.02563,799.81683
789.34064,796.1905,805.05493,811.0989
794.17584,795.38464,805.8608,803.8461
788.5348,797.8022,796.99634,793.36993
794.57874,801.02563,798.60803,782.8938
800.6227,805.05493,800.2198,793.36993
794.57874,802.6374,801.8315,804.2491
783.69965,796.99634,797.8022,785.31134
782.8938,802.6374,805.05493,799.011
791.3553,801.8315,796.5934,805.4579
792.96704,800.6227,793.7729,781.685
783.69965,798.60803,795.78754,800.2198
778.0586,796.1905,796.5934,791.75824
786.1172,784.90845,799.41394,801.8315
792.5641,785.31134,801.8315,788.1319
793.36993,796.1905,807.47253,786.52014
789.34064,808.68134,798.20514,793.36993
778.0586,805.4579,788.93774,783.69965
779.67035,796.1905,794.57874,758.315
789.34064,790.9524,797.8022,758.315
788.1319,793.7729,803.8461,784.90845
787.72894,805.05493,807.0696,793.7729
800.2198,806.6667,807.8755,792.96704
801.8315,807.0696,811.0989,792.5641
790.14655,797.3993,804.2491,775.64105
786.9231,800.2198,802.6374,791.3553
794.17584,809.4872,804.2491,808.68134
796.99634,802.6374,801.8315,800.6227
802.6374,802.6374,800.2198,792.5641
790.54944,799.81683,799.41394,780.07324
776.4469,792.1612,807.0696,775.2381
781.685,802.23444,805.05493,787.72894
794.17584,808.68134,794.17584,806.6667
803.0403,794.57874,792.1612,799.81683
793.36993,785.7143,795.78754,776.04395
779.2674,792.1612,802.6374,781.685
777.25275,793.7729,805.8608,814.3223
784.90845,796.1905,792.5641,790.14655
786.52014,792.1612,800.2198,817.1429
779.67035,794.57874,789.34064,776.8498
776.4469,801.02563,794.57874,791.75824
787.326,807.47253,802.6374,803.44324
787.326,803.8461,808.68134,797.3993
777.6557,802.23444,802.23444,783.69965
796.5934,810.293,793.36993,771.6117
806.26373,816.7399,791.3553,774.43225
803.8461,807.8755,793.7729,797.3993
798.20514,799.41394,799.011,807.0696
794.17584,796.99634,798.20514,806.6667
797.3993,804.2491,799.011,794.57874
797.3993,808.2784,801.02563,770.40295
799.81683,806.26373,802.6374,791.75824
795.78754,804.2491,802.6374,814.7253
796.1905,800.2198,801.4286,800.2198
786.52014,798.20514,796.5934,776.4469
777.6557,808.68134,796.5934,756.7033
794.17584,805.4579,799.81683,787.72894
800.6227,796.1905,795.78754,814.3223
799.81683,799.81683,793.7729,798.20514
784.10254,798.60803,796.99634,784.10254
773.22345,790.9524,803.0403,779.2674
780.07324,794.9817,804.65204,798.20514
795.78754,788.93774,804.2491,815.9341
802.6374,786.1172,815.9341,813.5165
796.99634,800.2198,815.9341,799.81683
794.9817,795.38464,796.1905,776.8498
791.3553,787.326,792.96704,785.7143
794.57874,786.52014,794.9817,805.05493
788.93774,786.52014,791.75824,800.6227
788.1319,789.34064,795.38464,781.685
794.9817,806.26373,800.6227,770
789.7436,805.4579,789.34064,788.1319
790.14655,796.1905,784.10254,815.12823
790.9524,792.96704,792.96704,810.293
796.5934,788.5348,797.8022,801.02563
792.5641,789.7436,798.20514,782.0879
786.9231,792.5641,790.9524,773.22345
787.72894,793.7729,788.93774,809.89014
792.1612,794.17584,799.81683,825.2015
794.17584,791.3553,796.99634,796.99634
789.7436,790.54944,788.1319,754.2857
788.5348,798.60803,782.0879,758.71796
793.7729,794.57874,786.52014,792.1612
782.8938,786.9231,792.96704,781.28204
767.1795,786.52014,789.7436,780.07324
775.64105,787.326,790.9524,786.1172
787.326,794.57874,798.20514,786.9231
796.5934,796.99634,796.99634,793.7729
797.8022,794.57874,791.75824,794.17584
796.5934,790.54944,792.5641,794.57874
789.34064,789.34064,789.34064,786.9231
781.28204,789.7436,788.1319,787.72894
780.4762,788.1319,795.78754,802.6374
787.326,785.7143,804.65204,815.9341
794.57874,786.1172,806.6667,815.5311
792.1612,792.1612,799.41394,821.1722
783.69965,797.3993,793.36993,844.94507
780.4762,798.20514,794.57874,862.27106
792.1612,793.36993,801.4286,869.12085
804.2491,793.7729,809.0842,877.5824
789.7436,793.7729,804.2491,861.4652
787.326,803.0403,803.8461,850.58606
804.2491,807.8755,811.50183,855.0183
798.20514,792.5641,801.4286,861.06226
786.9231,794.57874,791.75824,851.79486
789.34064,797.3993,790.9524,827.619
788.5348,791.75824,796.5934,822.7839
787.72894,792.5641,804.2491,831.6484
793.36993,792.96704,800.6227,855.82416
806.6667,812.71063,809.89014,823.1868
797.8022,812.71063,808.68134,805.4579
797.8022,807.0696,797.8022,799.81683
802.6374,803.0403,794.17584,822.7839
807.0696,803.8461,801.4286,851.39197
814.7253,799.011,796.5934,829.6337
799.81683,801.02563,800.6227,799.81683
792.1612,812.71063,802.23444,768.3883
799.011,809.4872,799.011,773.22345
796.99634,798.60803,802.23444,781.28204
796.99634,800.2198,806.26373,772.01465
793.7729,805.4579,800.2198,762.74725
794.57874,810.696,794.9817,756.7033
799.011,807.47253,801.4286,763.5531
808.68134,804.2491,802.6374,776.8498
804.2491,811.50183,802.23444,780.87915
788.1319,801.02563,811.9048,759.92676
789.34064,791.75824,803.8461,750.2564
790.9524,799.41394,794.57874,757.50916
793.36993,805.05493,803.44324,764.7619
795.38464,798.60803,798.20514,778.86444
796.5934,791.3553,793.36993,771.2088
798.60803,795.38464,804.65204,772.4176
785.31134,792.96704,800.6227,770
774.83514,785.7143,790.54944,761.9414
783.69965,794.57874,799.81683,780.4762
793.36993,798.20514,800.6227,780.4762
786.52014,794.17584,790.54944,782.0879
783.2967,783.2967,786.9231,779.67035
775.64105,776.04395,786.52014,770
780.07324,793.36993,798.20514,781.28204
799.81683,803.0403,805.05493,782.8938
782.49084,798.20514,796.5934,776.8498
789.7436,796.5934,796.5934,782.8938
774.83514,798.60803,801.4286,782.0879
782.49084,798.20514,803.44324,807.47253
793.36993,799.81683,803.0403,797.8022
788.5348,803.0403,798.60803,783.2967
787.72894,803.8461,795.38464,791.75824
783.2967,801.02563,801.02563,792.1612
784.10254,798.20514,805.4579,790.9524
790.54944,797.8022,799.41394,811.50183
792.1612,795.78754,798.20514,814.7253
784.90845,793.7729,797.3993,794.57874
782.0879,803.44324,797.3993,801.02563
792.1612,804.2491,798.20514,826.4103
799.81683,796.1905,801.02563,832.0513
781.28204,792.96704,807.47253,815.9341
787.72894,797.3993,808.68134,824.7985
790.54944,793.36993,805.4579,842.1245
795.38464,790.14655,807.0696,817.5458
793.7729,798.20514,792.96704,842.52747
802.6374,800.6227,791.75824,845.34796
807.47253,796.1905,800.6227,834.87177
791.3553,796.5934,794.17584,811.0989
787.326,805.8608,798.60803,836.4835
798.60803,806.26373,803.0403,846.9597
788.5348,799.41394,794.9817,835.6777
789.7436,798.60803,799.41394,835.6777
786.52014,800.2198,803.44324,845.34796
780.4762,802.23444,807.8755,863.0769
786.9231,807.0696,811.9048,876.3736
781.685,806.6667,806.6667,881.6117
774.43225,797.8022,799.41394,855.82416
778.0586,799.41394,801.4286,845.7509
787.72894,803.0403,805.05493,867.1062
784.10254,800.6227,805.05493,875.56775
781.28204,797.8022,803.8461,862.674
791.75824,799.41394,796.1905,843.73627
788.5348,803.0403,796.5934,826.4103
780.87915,797.3993,803.8461,844.1392
782.49084,784.90845,803.0403,869.92676
790.54944,792.1612,799.41394,856.63007
793.7729,803.0403,805.8608,839.707
786.1172,794.17584,806.26373,836.4835
792.5641,789.7436,799.011,839.707
797.3993,797.3993,798.20514,838.9011
787.72894,795.78754,794.57874,833.663
781.28204,786.1172,796.99634,820.7692
776.04395,784.10254,797.3993,829.6337
791.75824,793.36993,796.99634,819.5604
782.8938,788.5348,793.7729,820.7692
811.0989,807.47253,800.2198,830.84247
807.8755,800.2198,800.2198,839.304
793.36993,788.1319,796.5934,820.3663
780.4762,785.7143,798.20514,820.3663
803.44324,807.0696,797.3993,826.0073
790.9524,794.9817,800.2198,826.8132
792.5641,793.36993,801.4286,806.6667
788.5348,789.34064,807.47253,819.5604
787.326,790.54944,811.0989,843.73627
788.93774,794.57874,813.91943,832.8571
799.011,803.0403,797.3993,812.3077
781.685,794.57874,805.8608,808.2784
784.90845,796.5934,801.4286,809.4872
794.9817,794.9817,807.47253,817.1429
787.326,796.1905,805.05493,821.978
781.28204,792.1612,801.8315,817.1429
782.8938,787.326,801.02563,809.4872
788.1319,793.7729,797.8022,800.6227
782.8938,786.1172,799.81683,798.60803
778.86444,780.07324,799.41394,803.44324
787.72894,792.5641,803.0403,807.0696
799.41394,796.99634,803.8461,808.2784
788.5348,785.31134,795.78754,793.36993
786.9231,779.67035,793.36993,792.1612
793.7729,789.7436,798.60803,815.12823
790.14655,790.9524,804.2491,816.337
794.57874,788.5348,803.8461,808.68134
801.8315,792.5641,797.8022,803.8461
794.9817,793.7729,794.9817,796.5934
793.36993,794.57874,798.20514,800.6227
795.38464,794.17584,802.6374,809.0842
793.7729,792.5641,799.011,810.696
795.78754,795.38464,788.5348,793.36993
793.7729,800.2198,788.5348,793.36993
799.41394,805.4579,798.60803,815.5311
801.02563,801.4286,800.2198,832.0513
788.5348,803.0403,800.6227,811.50183
788.93774,803.8461,802.23444,782.0879
796.1905,801.8315,804.2491,791.3553
801.8315,799.81683,800.2198,807.8755
791.75824,793.7729,789.34064,808.68134
794.57874,801.4286,790.9524,800.6227
788.93774,801.8315,792.5641,799.41394
782.8938,797.8022,792.96704,791.75824
789.34064,802.23444,795.78754,798.20514
798.20514,804.65204,799.011,817.9487
808.68134,800.6227,799.011,817.9487
800.6227,794.57874,793.7729,804.2491
797.3993,799.011,794.57874,796.99634
790.54944,797.3993,796.5934,793.36993
790.9524,796.1905,798.20514,799.41394
790.14655,799.81683,799.81683,809.0842
792.5641,801.8315,798.60803,793.7729
795.78754,799.011,799.81683,797.8022
791.75824,794.57874,801.4286,791.3553
796.1905,796.5934,799.011,796.5934
795.38464,796.99634,801.8315,812.3077
788.93774,791.75824,804.65204,796.1905
785.7143,793.7729,792.1612,785.31134
784.10254,798.60803,787.72894,779.67035
789.7436,799.011,800.6227,785.7143
792.5641,797.3993,801.02563,798.60803
794.9817,790.54944,798.60803,799.81683
788.93774,790.9524,799.81683,781.685
778.86444,794.9817,799.41394,761.53845
771.2088,792.1612,799.81683,782.8938
775.64105,791.3553,793.36993,790.9524
786.52014,794.17584,793.7729,770.80585
797.3993,799.011,800.6227,776.04395
792.96704,798.20514,793.36993,791.75824
786.1172,794.9817,793.36993,806.26373
800.2198,797.8022,797.3993,808.68134
800.6227,799.41394,792.96704,799.011
805.05493,798.20514,791.3553,788.1319
801.02563,793.36993,793.36993,809.4872
802.6374,791.3553,786.1172,809.4872
798.60803,788.5348,782.0879,802.6374
805.8608,800.6227,789.34064,788.93774
798.20514,790.54944,780.87915,788.93774
801.4286,790.14655,784.10254,803.0403
798.60803,792.5641,788.93774,814.3223
805.4579,799.81683,791.75824,815.12823
794.9817,796.1905,796.5934,803.44324
794.17584,787.72894,788.93774,800.2198
786.1172,795.38464,791.75824,782.8938
793.7729,796.99634,793.7729,792.5641
781.685,796.99634,796.1905,811.9048
788.5348,796.99634,802.23444,770.40295
781.28204,794.9817,796.99634,796.5934
793.7729,798.60803,796.99634,807.0696
782.8938,794.17584,794.57874,805.4579
782.49084,790.54944,800.2198,788.93774
786.9231,795.38464,796.5934,797.3993
783.2967,793.36993,801.4286,791.3553
789.34064,796.99634,796.1905,786.52014
788.1319,794.17584,798.20514,779.67035
794.9817,787.72894,803.44324,823.5897
801.4286,790.9524,803.8461,816.337
782.49084,789.7436,798.20514,805.05493
788.93774,789.7436,799.81683,795.38464
784.90845,792.1612,799.011,783.69965
790.14655,796.1905,797.8022,802.23444
790.54944,792.1612,799.011,804.2491
794.17584,787.326,800.6227,788.93774
794.17584,790.9524,799.41394,794.9817
807.0696,790.9524,805.05493,815.12823
803.44324,796.5934,793.7729,813.5165
794.57874,792.5641,801.4286,801.02563
794.57874,796.1905,784.10254,797.3993
803.0403,795.38464,789.34064,794.57874
803.8461,791.75824,796.99634,790.9524
806.6667,792.96704,793.7729,798.20514
806.6667,801.8315,788.1319,823.1868
811.9048,797.3993,791.3553,808.2784
803.44324,790.9524,792.1612,776.04395
779.2674,789.34064,791.3553,778.46155
780.87915,792.5641,794.9817,795.38464
792.5641,798.20514,802.6374,809.0842
794.17584,800.6227,802.6374,808.2784
791.3553,797.3993,792.1612,789.7436
795.78754,798.60803,792.5641,786.1172
789.7436,804.2491,796.1905,808.2784
797.3993,797.3993,799.011,821.978
794.57874,807.0696,796.5934,796.5934
793.7729,791.75824,798.20514,798.60803
795.38464,791.75824,794.9817,778.0586
800.6227,797.3993,794.57874,801.02563
803.0403,801.02563,798.60803,816.7399
803.8461,796.99634,802.23444,801.8315
797.8022,783.69965,788.5348,777.25275
796.99634,786.52014,786.1172,780.07324
796.99634,792.1612,790.54944,795.38464
788.93774,789.7436,788.93774,804.65204
792.1612,792.96704,798.60803,807.47253
796.99634,789.7436,798.20514,791.75824
789.7436,784.90845,787.72894,776.8498
783.2967,795.38464,796.5934,777.6557
796.1905,801.02563,807.0696,793.7729
803.8461,799.81683,801.02563,809.89014
800.6227,811.0989,798.20514,794.57874
792.96704,803.8461,800.6227,771.2088
786.1172,790.9524,794.57874,784.90845
789.34064,793.7729,788.1319,800.6227
786.9231,797.3993,791.3553,791.3553
787.326,800.6227,799.81683,795.78754
786.52014,798.60803,800.6227,793.36993
791.3553,796.99634,794.9817,787.72894
792.96704,792.96704,792.1612,793.36993
798.20514,790.14655,794.9817,794.17584
805.8608,800.6227,803.8461,790.9524
784.10254,796.5934,796.99634,782.49084
776.4469,790.14655,790.9524,782.0879
786.9231,786.1172,794.57874,793.36993
788.5348,784.10254,786.9231,801.4286
795.78754,786.52014,788.5348,806.26373
800.2198,787.326,789.7436,798.20514
798.20514,782.8938,784.90845,801.02563
795.38464,780.87915,784.10254,807.47253
799.41394,787.72894,788.93774,820.7692
803.44324,787.326,784.90845,816.337
800.6227,783.69965,785.7143,794.9817
796.5934,773.22345,785.7143,780.4762
798.60803,778.46155,779.67035,792.96704
809.89014,794.57874,787.326,821.1722
810.696,794.17584,786.52014,817.9487
796.99634,785.7143,779.2674,803.8461
789.7436,785.7143,781.685,785.7143
781.685,792.1612,789.34064,795.38464
775.2381,792.1612,789.7436,813.5165
776.8498,790.9524,790.9524,808.68134
780.4762,793.7729,792.1612,793.7729
776.8498,803.44324,786.52014,767.98535
780.07324,802.23444,788.1319,774.83514
788.93774,799.81683,800.6227,799.81683
792.96704,800.2198,801.4286,801.8315
798.20514,794.9817,790.9524,780.87915
781.685,794.57874,788.5348,770.40295
778.86444,794.9817,794.9817,793.36993
794.9817,799.011,801.8315,818.3516
793.36993,798.20514,802.23444,805.4579
787.326,789.34064,797.3993,792.5641
784.90845,790.54944,788.1319,786.52014
784.5055,786.9231,789.34064,781.685
802.23444,782.8938,797.3993,805.8608
808.68134,786.52014,789.7436,807.0696
783.2967,788.93774,785.31134,794.9817
780.4762,782.49084,793.36993,793.7729
795.78754,785.31134,795.78754,803.0403
803.0403,796.99634,790.9524,811.9048
785.31134,804.65204,789.7436,793.7729
779.2674,797.8022,797.3993,794.9817
786.1172,793.7729,796.5934,795.38464
784.10254,803.0403,795.38464,782.0879
787.72894,801.02563,797.3993,808.2784
783.69965,802.23444,797.8022,811.9048
780.07324,801.8315,801.02563,773.22345
784.10254,799.011,805.4579,774.83514
780.07324,802.6374,807.8755,783.2967
778.46155,806.26373,803.8461,791.3553
787.326,800.2198,798.20514,798.20514
782.0879,792.5641,796.1905,782.0879
776.4469,798.20514,788.5348,768.3883
770.40295,794.17584,788.5348,764.35895
761.53845,788.1319,790.54944,775.2381
786.1172,795.78754,794.57874,792.96704
796.5934,796.5934,799.011,796.5934
788.1319,795.78754,792.96704,781.28204
780.87915,788.5348,791.75824,763.5531
772.4176,785.31134,792.5641,770.40295
784.10254,795.78754,796.5934,803.44324
783.2967,790.14655,798.60803,812.71063
784.10254,782.8938,788.1319,774.43225
796.1905,791.75824,788.1319,766.3736
789.7436,792.1612,797.3993,786.52014
786.1172,785.31134,790.9524,794.9817
792.5641,790.54944,786.52014,792.5641
791.75824,792.1612,791.3553,783.2967
786.52014,792.5641,799.41394,784.10254
786.52014,799.41394,801.8315,768.7912
778.46155,796.99634,795.78754,786.9231
779.2674,800.2198,792.1612,811.9048
785.31134,807.0696,793.36993,786.9231
773.22345,796.5934,796.99634,768.3883
777.6557,790.9524,797.3993,775.2381
785.31134,796.5934,798.60803,792.96704
782.49084,797.3993,804.2491,806.6667
783.69965,796.99634,801.02563,793.36993
785.31134,798.60803,796.5934,786.52014
779.67035,795.78754,800.6227,784.90845
786.9231,791.3553,800.6227,799.011
793.7729,791.3553,800.6227,808.2784
783.2967,790.9524,792.5641,789.34064
784.10254,792.1612,789.34064,785.7143
773.6264,787.72894,790.9524,780.07324
778.46155,786.52014,792.96704,797.3993
788.93774,782.49084,788.1319,813.1135
789.34064,775.2381,787.72894,801.02563
793.7729,778.86444,794.9817,800.6227
799.011,787.72894,790.14655,796.99634
793.36993,788.1319,788.93774,799.011
788.1319,773.6264,792.1612,812.3077
788.5348,772.4176,797.3993,786.1172
804.2491,793.36993,793.7729,799.011
795.38464,793.36993,801.02563,802.23444
788.1319,784.5055,796.5934,779.2674
789.34064,795.38464,794.9817,809.4872
771.6117,790.9524,793.36993,790.54944
786.1172,792.1612,790.14655,790.54944
779.2674,794.17584,799.011,796.5934
787.326,801.4286,801.02563,790.9524
780.87915,792.5641,805.4579,820.7692
774.43225,790.9524,792.5641,790.14655
784.10254,805.05493,805.4579,784.90845
777.6557,803.0403,808.2784,785.31134
780.4762,795.38464,800.6227,793.7729
779.67035,794.57874,795.78754,798.60803
775.64105,799.41394,799.011,790.54944
780.4762,798.60803,801.4286,784.90845
778.86444,799.011,794.57874,778.46155
787.326,790.54944,797.8022,790.9524
797.3993,792.5641,804.65204,816.337
796.5934,797.3993,795.78754,813.1135
788.5348,793.36993,792.96704,797.8022
783.2967,798.60803,801.4286,795.38464
784.5055,802.6374,802.6374,790.54944
791.3553,806.6667,802.23444,793.7729
789.34064,794.9817,799.011,798.20514
779.2674,795.78754,797.8022,789.34064
780.07324,801.4286,800.2198,785.31134
790.54944,804.2491,803.0403,792.1612
791.75824,799.011,803.8461,807.47253
789.34064,796.99634,809.4872,814.7253
790.9524,801.4286,800.2198,771.2088
793.7729,800.2198,804.2491,802.23444
788.93774,801.4286,809.0842,770
782.0879,797.3993,810.696,791.75824
779.2674,792.1612,799.81683,801.02563
795.38464,792.5641,799.81683,801.4286
792.1612,795.38464,798.60803,786.52014
783.69965,795.38464,800.6227,771.2088
782.0879,788.93774,800.6227,786.52014
777.6557,792.1612,796.99634,808.2784
774.0293,790.54944,796.99634,790.54944
779.2674,792.1612,796.99634,786.52014
785.7143,789.34064,793.7729,795.38464
786.9231,790.54944,797.8022,801.4286
794.9817,796.1905,803.0403,796.99634
775.64105,793.36993,798.60803,803.0403
793.7729,792.1612,798.20514,781.685
787.326,789.7436,795.38464,774.0293
796.1905,791.75824,794.17584,789.7436
805.8608,781.28204,793.7729,815.12823
805.4579,778.46155,788.5348,809.0842
806.26373,788.5348,785.7143,792.1612
794.17584,782.49084,784.10254,786.9231
798.20514,770.40295,782.8938,796.5934
810.293,770.40295,788.5348,807.8755
