eeg_1,eeg_2,eeg_3,eeg_4
781.28204,803.0403,806.26373,744.61536
767.98535,797.8022,799.41394,649.12085
804.2491,799.011,802.6374,803.44324
835.2747,810.293,809.4872,936.8132
828.4249,807.0696,808.68134,900.54944
800.6227,803.44324,805.8608,777.6557
779.2674,806.26373,797.8022,656.77655
765.9707,779.2674,776.8498,744.21246
774.0293,770.80585,783.2967,884.83514
793.36993,796.1905,807.8755,886.04395
771.2088,797.3993,805.05493,772.8205
742.6007,788.5348,798.60803,637.8388
775.64105,793.7729,809.89014,738.1685
808.68134,795.38464,817.5458,908.20514
795.38464,790.54944,807.47253,909.81683
774.0293,788.93774,798.20514,809.89014
756.30035,791.75824,790.9524,660.40295
773.22345,801.02563,795.38464,723.663
793.7729,798.60803,792.96704,888.86444
800.6227,798.20514,794.9817,909.011
781.28204,796.99634,797.8022,822.7839
743.8095,790.9524,786.1172,666.04395
751.06226,792.1612,790.54944,699.0842
792.1612,799.41394,803.0403,897.326
805.05493,803.0403,803.8461,932.381
785.31134,801.02563,801.4286,842.9304
762.74725,801.4286,792.96704,691.8315
780.07324,804.65204,794.57874,692.6374
823.1868,814.7253,809.0842,888.86444
814.3223,802.23444,791.75824,932.7839
754.68866,763.5531,751.4652,810.293
751.8681,780.87915,766.3736,667.25275
791.75824,802.6374,796.5934,672.49084
792.5641,774.43225,788.5348,837.6923
775.2381,758.315,775.2381,909.41394
804.65204,789.7436,799.011,881.6117
783.2967,788.93774,794.57874,706.337
844.94507,794.17584,803.44324,846.1539
856.2271,802.23444,809.89014,954.94507
831.6484,796.5934,800.2198,881.2088
804.65204,784.90845,788.1319,678.1319
856.2271,795.38464,803.0403,855.82416
861.06226,793.36993,809.0842,964.21246
804.2491,782.8938,785.7143,739.3773
821.978,772.8205,788.1319,897.326
801.8315,773.22345,788.93774,767.1795
807.47253,790.14655,803.8461,669.67035
775.2381,779.67035,784.90845,633.4066
841.31866,795.78754,811.50183,807.8755
861.4652,792.96704,813.91943,949.304
853.00366,796.5934,808.2784,923.1135
829.6337,800.2198,803.0403,796.99634
817.9487,798.20514,800.2198,677.72894
857.8388,806.26373,807.0696,788.5348
869.12085,811.9048,806.26373,937.2161
842.9304,807.47253,803.0403,927.9487
825.6044,798.60803,800.6227,827.619
807.0696,790.54944,795.78754,671.28204
826.0073,791.3553,801.4286,739.7802
853.4066,795.78754,815.12823,927.5458
828.8278,783.2967,803.0403,911.4286
787.326,761.13556,775.64105,786.1172
784.10254,776.04395,787.326,651.9414
830.4396,800.2198,807.0696,719.6337
866.7033,806.26373,811.50183,923.1135
853.00366,804.65204,809.89014,949.304
828.8278,804.2491,804.2491,850.18317
790.9524,772.8205,771.2088,697.47253
836.8865,785.31134,789.7436,888.46155
806.26373,796.5934,792.96704,697.0696
852.1978,801.8315,814.7253,950.10986
819.5604,794.9817,808.2784,867.50916
793.36993,794.57874,798.20514,704.3223
805.05493,793.7729,802.6374,685.38464
848.97437,800.6227,810.696,886.8498
847.76556,801.8315,806.26373,957.3626
824.7985,795.38464,808.2784,873.1502
796.5934,791.3553,802.6374,719.6337
796.99634,801.4286,802.6374,671.28204
827.619,801.4286,805.8608,842.1245
790.54944,759.5238,778.46155,902.96704
785.31134,761.9414,787.72894,851.79486
796.99634,788.5348,805.05493,747.4359
773.6264,779.67035,799.41394,658.3883
801.02563,782.0879,805.05493,809.0842
778.46155,785.7143,793.7729,746.63007
827.2161,792.96704,809.0842,933.9927
815.9341,794.17584,807.47253,890.07324
772.01465,783.69965,785.31134,643.0769
814.7253,796.5934,801.8315,792.1612
845.7509,810.696,811.9048,942.4542
803.0403,789.34064,792.1612,786.1172
804.2491,806.26373,798.60803,668.46155
823.5897,789.7436,792.1612,899.7436
821.978,799.41394,799.011,767.5824
838.49817,794.9817,804.2491,942.0513
840.10986,804.65204,808.68134,937.619
825.2015,804.2491,807.0696,810.293
787.72894,796.99634,797.3993,659.19415
805.4579,798.60803,801.02563,742.6007
831.6484,804.65204,806.6667,936.8132
844.1392,803.44324,809.0842,924.7253
796.5934,796.1905,794.57874,824.3956
746.2271,766.3736,760.32965,643.8828
821.1722,779.2674,791.3553,902.1612
757.1062,755.09155,757.9121,692.23444
829.6337,790.54944,799.41394,927.5458
801.8315,788.1319,796.1905,828.4249
769.19415,786.1172,796.1905,685.38464
777.6557,780.4762,797.8022,709.5604
810.696,782.0879,805.05493,890.07324
817.5458,794.57874,803.44324,929.15753
803.0403,796.99634,796.99634,849.3773
777.6557,790.9524,789.7436,696.26373
770.40295,790.9524,779.2674,668.46155
800.2198,796.99634,787.326,858.24176
813.5165,796.1905,796.1905,930.3663
793.36993,784.90845,792.1612,850.18317
767.1795,784.5055,783.69965,700.696
774.0293,790.9524,788.1319,662.8205
808.68134,790.9524,802.23444,842.1245
809.89014,790.54944,801.4286,933.9927
794.17584,790.14655,797.8022,880.80585
770.40295,788.1319,794.9817,727.28937
759.5238,785.7143,790.54944,637.8388
788.5348,794.9817,801.8315,806.26373
802.6374,804.2491,808.68134,937.619
787.326,798.60803,801.4286,892.0879
761.9414,787.72894,792.1612,745.82416
746.63007,782.49084,793.7729,642.674
767.1795,774.43225,793.36993,777.6557
790.54944,778.86444,798.60803,909.011
786.52014,790.54944,802.6374,887.25275
761.13556,788.93774,795.78754,769.19415
750.2564,788.1319,794.17584,642.674
785.7143,794.9817,805.05493,763.1502
808.2784,797.8022,811.50183,925.5311
806.26373,792.1612,809.0842,905.38464
796.1905,790.9524,805.05493,791.75824
760.7326,789.7436,799.011,657.1795
780.87915,786.52014,802.23444,744.21246
806.6667,778.86444,799.81683,904.9817
799.81683,788.93774,803.0403,917.8755
790.9524,801.4286,809.4872,831.2454
765.9707,798.60803,801.02563,672.8938
766.3736,786.9231,796.5934,710.3663
808.68134,797.8022,806.6667,911.4286
809.89014,801.8315,808.68134,938.8278
744.61536,788.93774,783.69965,651.9414
778.46155,790.54944,797.8022,812.3077
756.30035,794.9817,784.90845,682.5641
794.17584,800.2198,800.6227,880
784.90845,785.31134,800.2198,913.44324
753.0769,761.13556,781.685,813.1135
745.0183,772.01465,780.87915,681.3553
763.95605,790.9524,792.96704,684.57874
787.72894,794.9817,803.44324,862.674
784.5055,793.36993,806.6667,921.9048
772.8205,796.1905,803.8461,859.85345
744.61536,792.96704,794.17584,694.2491
732.1245,776.04395,783.2967,631.39197
779.2674,787.326,798.60803,836.4835
802.23444,803.8461,811.50183,936.0073
774.43225,790.54944,803.44324,850.989
729.304,763.95605,774.83514,691.4286
740.18317,767.98535,775.64105,638.24176
786.52014,790.54944,803.8461,821.978
789.34064,791.3553,810.293,925.9341
776.04395,786.1172,807.0696,869.12085
755.89746,786.1172,804.2491,733.73627
756.7033,793.7729,805.8608,645.09155
799.41394,798.20514,811.9048,800.6227
814.7253,798.20514,816.337,936.8132
793.36993,803.44324,813.5165,896.9231
776.4469,807.8755,805.4579,774.0293
745.82416,788.93774,786.9231,648.315
709.5604,743.8095,752.674,718.022
743.4066,749.0476,767.98535,882.8205
793.7729,791.75824,811.9048,912.6374
774.83514,798.20514,813.91943,798.20514
752.674,793.36993,806.26373,660.80585
776.8498,801.02563,815.5311,753.8828
799.011,807.0696,823.9927,922.3077
787.72894,807.0696,818.3516,921.50183
769.59705,804.65204,807.47253,807.47253
756.30035,805.4579,801.8315,658.7912
779.2674,813.5165,804.65204,720.4396
763.5531,774.83514,775.64105,861.8681
745.0183,753.0769,765.56775,881.2088
786.1172,793.36993,800.6227,836.8865
769.59705,804.2491,801.8315,686.99634
762.3443,799.41394,801.8315,709.9634
801.4286,804.2491,814.7253,894.10254
809.4872,807.8755,818.7546,929.15753
783.69965,807.0696,813.91943,841.7216
754.68866,800.2198,801.8315,692.23444
754.68866,793.7729,804.65204,696.26373
794.57874,809.4872,819.15753,896.1172
789.34064,807.47253,804.65204,936.4103
703.5165,747.4359,751.8681,799.011
692.6374,750.65936,760.32965,665.64105
747.8388,796.5934,800.2198,678.93774
773.22345,789.34064,794.57874,842.1245
778.46155,790.54944,798.60803,930.7692
776.4469,808.2784,812.71063,879.59705
742.6007,800.2198,801.8315,712.7839
728.9011,794.9817,795.38464,643.8828
772.01465,802.23444,809.0842,820.3663
796.1905,804.65204,815.9341,924.7253
778.86444,805.05493,809.4872,875.9707
712.381,771.2088,772.01465,707.5458
699.0842,759.12085,764.7619,591.0989
775.2381,791.75824,802.23444,771.2088
806.6667,806.6667,815.5311,925.5311
792.96704,806.6667,811.0989,893.2967
772.4176,802.23444,803.44324,770.40295
763.95605,804.65204,804.2491,664.43225
795.78754,786.9231,797.3993,938.8278
807.47253,797.8022,810.293,931.5751
781.685,798.20514,803.44324,784.5055
795.78754,802.23444,813.5165,807.0696
752.27106,786.9231,786.9231,650.32965
759.5238,782.49084,777.25275,732.52747
809.89014,796.5934,807.0696,916.6667
813.91943,794.9817,821.1722,918.68134
764.35895,771.2088,792.5641,789.7436
736.9597,754.68866,763.95605,632.1978
788.5348,787.326,792.96704,726.08057
818.3516,799.81683,809.0842,912.23444
815.12823,793.7729,807.8755,932.7839
807.8755,795.78754,804.2491,839.707
767.98535,791.3553,796.99634,673.2967
767.1795,787.326,801.02563,698.2784
799.011,788.1319,805.4579,886.8498
803.8461,794.9817,808.2784,919.0842
801.02563,799.011,811.9048,842.52747
786.9231,794.57874,803.0403,693.0403
796.1905,789.34064,795.38464,690.6227
838.49817,801.4286,815.12823,906.1905
845.34796,816.7399,819.5604,967.03296
819.5604,807.8755,805.4579,874.35895
792.96704,801.02563,797.3993,732.52747
797.8022,803.0403,797.8022,701.9048
829.6337,801.8315,809.4872,877.98535
838.0952,802.23444,811.9048,969.85345
823.1868,807.0696,808.68134,905.78754
804.65204,803.44324,801.8315,750.65936
796.1905,796.1905,800.6227,697.47253
807.0696,786.1172,797.3993,844.5421
775.2381,743.4066,760.32965,893.69965
759.92676,741.79486,763.1502,853.4066
776.8498,783.69965,792.96704,759.12085
772.4176,791.75824,796.5934,662.8205
837.28937,810.293,820.3663,963.4066
828.4249,813.91943,812.71063,926.337
784.5055,806.26373,797.8022,771.6117
765.16486,799.81683,796.99634,661.6117
806.26373,799.81683,811.0989,814.7253
800.6227,806.6667,807.8755,796.1905
821.1722,807.8755,811.0989,938.4249
763.1502,763.5531,773.6264,881.2088
719.2308,744.21246,757.50916,741.79486
747.4359,787.72894,795.78754,645.09155
794.9817,810.696,811.9048,770
814.7253,815.9341,813.5165,939.6337
798.60803,812.71063,816.7399,934.7985
778.46155,811.0989,815.5311,834.87177
772.01465,813.5165,811.50183,685.78754
787.326,805.4579,810.293,738.5714
802.6374,801.8315,814.3223,911.8315
807.0696,815.12823,817.5458,944.0659
768.3883,799.41394,794.9817,828.4249
688.60803,742.6007,739.3773,610.4396
730.5128,764.35895,767.1795,676.1172
811.9048,811.9048,815.12823,916.6667
789.34064,790.9524,797.8022,926.7399
776.8498,790.54944,794.57874,835.2747
774.43225,804.2491,800.2198,705.12823
776.4469,800.2198,800.2198,713.9927
801.8315,802.23444,804.2491,892.0879
799.81683,803.0403,805.8608,940.84247
791.75824,805.4579,810.293,869.5238
772.4176,803.44324,803.0403,721.6484
757.9121,789.7436,791.3553,674.5055
797.3993,797.8022,805.4579,860.65936
818.3516,811.0989,819.15753,949.304
797.8022,802.23444,804.65204,867.1062
740.18317,762.3443,762.3443,685.78754
742.6007,774.83514,776.04395,639.85345
805.4579,805.4579,812.71063,847.3626
814.3223,796.5934,806.26373,943.663
788.1319,791.75824,799.41394,875.56775
780.87915,796.1905,803.0403,745.82416
778.0586,798.60803,805.4579,662.4176
795.38464,793.36993,802.23444,799.011
767.5824,760.32965,770.40295,886.4469
770,770.80585,782.0879,869.12085
782.8938,792.96704,801.8315,776.4469
763.5531,786.52014,788.1319,651.13556
802.23444,798.20514,796.99634,788.93774
830.4396,806.6667,809.4872,945.2747
792.1612,801.02563,798.20514,801.8315
767.1795,794.9817,792.5641,670.07324
797.8022,793.36993,801.4286,762.74725
814.7253,799.41394,804.65204,913.0403
834.4689,805.8608,810.293,925.9341
780.87915,772.01465,769.59705,884.83514
740.989,746.63007,743.8095,761.9414
766.77655,780.4762,777.25275,657.98535
799.011,794.17584,794.17584,732.9304
823.5897,792.1612,798.60803,901.3553
823.5897,799.41394,809.0842,920.696
800.2198,798.60803,802.6374,823.5897
765.16486,789.7436,788.1319,660
780.87915,792.1612,793.36993,703.5165
808.2784,795.78754,802.23444,897.72894
807.47253,801.02563,807.0696,927.9487
777.6557,793.7729,793.7729,838.49817
739.7802,783.2967,776.8498,679.34064
770.80585,792.96704,793.7729,700.696
820.7692,809.0842,815.12823,895.31134
795.78754,784.90845,791.75824,917.47253
736.9597,767.1795,766.3736,675.7143
727.28937,735.34796,744.61536,794.57874
784.5055,805.05493,803.8461,690.2198
802.6374,801.4286,807.8755,865.4945
806.6667,803.8461,807.8755,951.7216
797.3993,805.4579,806.6667,888.0586
757.1062,797.3993,795.78754,726.08057
750.2564,792.96704,790.9524,674.5055
801.8315,806.26373,805.05493,857.03296
819.9634,811.50183,812.3077,941.2454
796.5934,801.02563,805.8608,871.53845
718.4249,755.4945,760.32965,688.60803
711.5751,751.8681,757.50916,607.619
789.34064,796.99634,806.6667,813.91943
803.44324,803.44324,816.337,940.4396
757.1062,800.2198,803.44324,649.92676
762.3443,800.2198,803.44324,748.24176
777.25275,798.20514,809.0842,791.3553
782.8938,799.011,808.2784,889.2674
801.02563,801.8315,811.50183,930.3663
807.47253,806.26373,810.696,905.38464
789.7436,807.8755,805.8608,809.4872
739.7802,786.52014,786.9231,680.54944
710.3663,735.7509,749.0476,707.1429
753.47986,743.4066,751.8681,874.7619
793.7729,788.5348,794.57874,920.696
774.0293,794.57874,802.6374,805.8608
753.0769,794.57874,797.3993,660
788.1319,800.6227,803.0403,738.5714
810.293,807.47253,811.0989,905.78754
785.7143,805.4579,810.293,909.81683
761.13556,799.011,803.8461,810.696
767.1795,799.41394,799.81683,705.12823
755.4945,776.8498,779.2674,861.8681
761.9414,799.81683,798.60803,803.0403
763.1502,773.6264,777.6557,839.304
744.61536,801.4286,800.2198,664.83514
726.08057,795.78754,792.96704,645.09155
740.18317,799.81683,794.9817,656.77655
738.97437,802.23444,799.41394,822.381
783.2967,804.65204,803.0403,840.9158
717.619,793.36993,784.10254,664.43225
725.6777,796.1905,783.69965,644.2857
771.2088,813.1135,801.8315,848.5714
767.5824,802.23444,806.26373,891.685
778.86444,804.65204,803.8461,915.4579
735.34796,775.64105,776.8498,816.337
715.6044,778.46155,779.2674,685.38464
738.5714,796.5934,800.6227,659.59705
777.25275,803.8461,811.50183,831.6484
793.36993,806.26373,814.7253,927.1429
768.7912,803.0403,807.0696,865.89746
734.94507,799.81683,797.3993,718.4249
735.7509,797.8022,792.5641,636.63007
784.10254,802.6374,805.4579,808.68134
801.8315,809.89014,813.91943,924.3223
788.5348,811.50183,810.696,860.2564
739.7802,789.34064,792.1612,707.5458
709.5604,774.43225,779.67035,594.3223
754.2857,784.10254,799.41394,751.8681
788.5348,787.326,809.0842,913.0403
777.6557,783.69965,796.99634,894.5055
760.7326,788.93774,794.9817,771.2088
728.0952,792.5641,796.5934,624.1392
747.4359,791.75824,797.8022,723.663
782.8938,795.78754,806.6667,897.326
762.74725,793.36993,799.011,780.4762
731.7216,773.22345,775.2381,707.1429
730.9158,791.3553,788.1319,641.8681
770.80585,777.6557,794.9817,874.35895
783.2967,795.78754,805.8608,890.07324
785.31134,783.69965,807.8755,901.3553
775.64105,774.83514,793.7729,804.65204
768.3883,779.67035,791.3553,673.69965
771.2088,793.7729,802.6374,725.2747
784.90845,797.3993,810.293,893.2967
804.65204,797.3993,810.293,928.3516
797.8022,797.8022,801.02563,842.52747
760.7326,793.7729,788.1319,672.49084
764.7619,796.1905,786.52014,689.81683
788.5348,796.1905,788.93774,871.13556
786.9231,794.17584,790.14655,894.90845
778.86444,796.5934,792.5641,813.91943
761.9414,790.54944,786.52014,671.28204
765.56775,786.9231,785.31134,666.8498
795.38464,797.3993,799.41394,860.2564
822.381,807.47253,811.50183,951.31866
812.3077,801.8315,805.8608,873.1502
775.2381,797.8022,801.4286,705.12823
769.19415,799.81683,805.05493,666.4469
791.75824,801.8315,815.12823,835.6777
796.99634,801.4286,820.7692,923.91943
786.9231,800.6227,814.7253,873.95605
778.46155,802.23444,808.68134,731.31866
786.1172,804.65204,810.696,663.6264
816.337,801.8315,813.91943,826.0073
809.89014,789.34064,798.60803,919.0842
799.81683,787.72894,790.9524,872.74725
801.8315,795.38464,793.7729,755.09155
792.96704,794.9817,794.17584,660.80585
823.5897,798.20514,808.68134,813.1135
846.55676,805.8608,813.5165,942.8571
832.0513,804.65204,804.65204,903.7729
817.9487,800.6227,798.20514,790.9524
808.68134,801.4286,792.96704,672.0879
826.8132,801.4286,798.60803,771.6117
844.5421,801.02563,804.2491,918.68134
817.5458,776.4469,784.10254,893.69965
807.8755,774.0293,781.685,796.1905
822.381,793.36993,796.1905,693.0403
843.73627,799.81683,803.44324,782.0879
856.2271,798.60803,810.293,942.8571
855.42126,796.5934,817.1429,953.73627
838.0952,798.20514,808.68134,855.82416
815.9341,794.17584,796.99634,710.3663
833.663,795.38464,807.0696,765.9707
859.45056,803.8461,815.12823,935.6044
854.21246,803.44324,806.6667,958.1685
826.0073,787.72894,792.5641,861.06226
799.81683,779.67035,790.9524,705.5311
821.1722,787.72894,798.20514,736.9597
862.27106,799.41394,811.0989,931.5751
833.663,781.28204,792.96704,953.73627
774.43225,744.21246,755.89746,836.4835
790.54944,767.98535,772.01465,718.022
828.022,798.20514,790.9524,726.4835
843.3333,788.5348,791.75824,885.2381
856.63007,796.1905,802.23444,956.9597
861.06226,809.89014,809.4872,898.1319
830.0366,801.4286,802.6374,732.9304
780.07324,765.16486,771.2088,655.16486
820.3663,774.83514,783.69965,848.97437
862.674,808.68134,817.1429,966.2271
845.7509,809.4872,816.7399,900.14655
813.1135,805.05493,804.2491,753.8828
804.65204,804.2491,801.4286,682.96704
845.34796,814.7253,822.7839,852.1978
856.2271,820.3663,828.8278,958.97437
830.0366,815.12823,817.5458,902.96704
803.44324,811.0989,807.47253,769.19415
789.7436,811.50183,803.44324,672.49084
818.3516,812.71063,807.8755,809.89014
834.87177,811.50183,810.293,940.0366
814.3223,799.81683,803.44324,899.34064
797.3993,799.41394,799.81683,783.2967
765.56775,784.10254,780.07324,667.6557
741.79486,747.03296,748.6447,736.1539
778.86444,765.16486,771.6117,886.04395
810.696,800.6227,808.68134,907.3993
781.28204,794.9817,795.78754,789.34064
760.7326,789.7436,784.5055,658.7912
799.41394,800.2198,801.02563,759.5238
834.0659,807.0696,807.8755,921.50183
776.4469,770.40295,765.56775,882.4176
730.10986,753.0769,743.8095,761.53845
759.12085,785.7143,778.86444,652.74725
792.96704,800.6227,796.1905,729.304
811.9048,801.4286,799.011,904.9817
814.7253,805.05493,803.0403,926.7399
763.95605,795.78754,792.5641,677.326
779.67035,794.17584,792.5641,700.696
791.3553,803.44324,801.02563,832.8571
812.3077,797.8022,801.02563,886.8498
828.022,808.68134,812.3077,938.8278
811.0989,803.44324,799.41394,854.61536
744.21246,761.9414,753.0769,670.87915
763.95605,766.77655,769.59705,676.52014
832.0513,793.36993,807.8755,886.04395
821.5751,792.96704,798.20514,933.9927
796.1905,794.17584,794.57874,850.989
777.6557,800.2198,801.4286,709.5604
774.43225,798.60803,799.011,675.7143
800.2198,794.9817,801.4286,844.94507
807.0696,807.0696,809.0842,876.3736
813.91943,801.4286,806.26373,935.6044
788.1319,807.0696,803.8461,718.4249
749.45056,774.43225,767.1795,623.3333
779.2674,763.95605,777.25275,798.20514
830.84247,796.99634,820.7692,933.9927
820.3663,800.6227,819.9634,883.22345
784.90845,789.7436,805.8608,743.4066
764.7619,784.90845,795.78754,647.9121
804.65204,791.3553,802.6374,802.6374
823.1868,799.011,806.6667,929.9634
790.54944,779.2674,795.38464,875.9707
771.6117,778.0586,793.7729,760.7326
771.2088,787.326,799.41394,651.13556
794.17584,781.685,803.44324,765.16486
798.20514,775.2381,794.57874,899.7436
800.6227,788.93774,795.38464,893.2967
785.7143,802.23444,799.011,796.99634
730.10986,774.43225,770.40295,639.85345
722.4542,746.63007,747.4359,708.7546
792.5641,789.7436,796.5934,904.57874
802.6374,809.4872,819.9634,910.2198
782.0879,805.8608,812.71063,803.44324
761.13556,806.6667,806.6667,657.98535
781.28204,813.5165,811.9048,719.6337
805.8608,810.696,815.9341,896.9231
760.32965,775.2381,778.46155,877.98535
752.27106,779.67035,774.83514,782.49084
765.9707,802.23444,796.5934,666.8498
776.04395,792.96704,798.20514,701.0989
782.49084,774.43225,783.2967,863.47986
797.3993,790.9524,795.78754,909.81683
801.4286,803.0403,807.47253,836.8865
771.6117,792.96704,793.7729,682.96704
770,792.5641,798.20514,695.05493
798.60803,801.8315,810.293,934.7985
777.25275,807.0696,808.2784,713.1868
790.9524,803.8461,810.696,860.65936
778.86444,808.2784,808.68134,687.8022
800.6227,801.8315,812.3077,886.4469
821.5751,819.5604,824.7985,874.7619
821.1722,811.0989,813.5165,945.6777
722.0513,746.2271,751.4652,681.75824
740.18317,745.0183,755.4945,835.6777
778.46155,801.8315,801.4286,663.22345
812.71063,811.9048,820.3663,838.49817
817.9487,810.696,823.1868,936.4103
803.8461,811.0989,821.1722,882.01465
769.59705,802.6374,813.5165,741.79486
760.32965,796.5934,806.26373,651.9414
805.05493,810.696,811.9048,806.26373
819.9634,820.7692,816.337,929.9634
799.41394,808.2784,809.0842,885.64105
735.7509,764.7619,763.1502,718.022
710.3663,751.06226,747.8388,596.337
827.619,807.8755,818.3516,941.6484
792.96704,793.36993,797.3993,776.04395
807.0696,800.6227,813.5165,913.44324
786.1172,795.78754,805.8608,794.57874
774.83514,797.3993,800.6227,675.7143
801.02563,803.0403,809.4872,775.2381
835.2747,808.2784,818.7546,932.7839
799.011,811.0989,803.44324,817.5458
833.2601,808.68134,813.5165,924.3223
763.95605,792.96704,789.34064,668.86444
760.32965,759.5238,773.22345,707.9487
805.4579,770,789.34064,888.86444
822.381,796.99634,807.47253,929.9634
790.54944,795.78754,797.8022,828.4249
767.1795,785.7143,791.3553,668.86444
794.17584,790.14655,799.41394,716.8132
819.9634,796.5934,811.50183,895.7143
810.293,792.5641,811.9048,916.6667
794.57874,792.96704,803.0403,831.6484
769.59705,798.60803,794.57874,683.7729
778.46155,802.6374,795.38464,695.8608
792.1612,788.1319,787.72894,861.8681
792.5641,784.10254,792.96704,911.02563
795.78754,794.9817,807.47253,852.1978
771.6117,793.36993,798.60803,697.0696
755.4945,779.67035,784.10254,655.16486
794.17584,785.7143,803.0403,847.3626
811.50183,796.99634,810.696,937.2161
796.1905,792.1612,800.6227,869.92676
776.4469,787.326,795.38464,673.2967
813.1135,791.3553,811.0989,841.31866
778.46155,786.9231,794.17584,726.8865
816.7399,790.9524,809.89014,937.2161
758.71796,761.13556,773.22345,854.61536
738.1685,757.50916,769.19415,713.1868
770.80585,783.2967,792.1612,657.5824
806.6667,797.3993,802.23444,820.3663
819.5604,801.02563,804.65204,937.2161
814.3223,801.4286,805.05493,894.10254
786.9231,794.9817,799.41394,757.1062
768.3883,797.8022,795.78754,647.1062
803.0403,811.0989,803.8461,789.7436
819.15753,812.71063,814.3223,933.5897
809.89014,811.0989,812.71063,904.17584
760.7326,785.7143,772.8205,761.9414
730.10986,763.1502,751.8681,623.3333
794.57874,792.5641,794.9817,756.7033
834.87177,803.8461,813.91943,934.3956
821.1722,800.2198,807.0696,927.9487
794.57874,802.23444,799.41394,816.337
774.0293,799.41394,790.14655,672.0879
789.7436,795.38464,794.9817,744.61536
811.50183,799.011,804.65204,915.05493
804.2491,799.011,803.44324,913.0403
791.75824,795.78754,798.60803,817.9487
765.9707,791.3553,791.3553,677.326
777.6557,792.96704,790.54944,722.4542
817.1429,801.4286,802.23444,905.78754
822.381,807.0696,808.2784,927.9487
780.4762,787.72894,788.1319,819.9634
705.9341,743.4066,745.82416,633.4066
756.30035,774.43225,775.2381,682.5641
828.4249,809.0842,809.0842,892.49084
817.1429,799.011,801.8315,925.12823
794.17584,797.3993,799.011,848.5714
769.59705,795.38464,792.96704,700.293
779.2674,796.99634,789.34064,681.3553
813.5165,799.81683,796.1905,861.8681
822.381,807.47253,806.6667,934.3956
807.0696,809.0842,808.2784,863.0769
784.10254,804.2491,799.81683,718.4249
745.42126,763.1502,759.92676,633.00366
790.54944,765.9707,768.7912,810.696
852.6007,813.1135,814.3223,952.9304
836.08057,811.0989,814.7253,891.685
782.49084,794.57874,796.1905,666.4469
804.65204,799.011,801.02563,745.0183
807.0696,797.3993,809.4872,824.7985
816.337,799.41394,811.0989,937.2161
797.8022,796.5934,804.65204,895.7143
773.22345,794.9817,797.8022,770.80585
769.19415,798.20514,796.99634,666.04395
806.6667,800.2198,807.47253,799.011
792.1612,770.40295,782.8938,898.5348
777.25275,770.40295,776.8498,862.674
783.69965,797.3993,793.36993,768.7912
751.06226,776.8498,772.4176,629.3773
816.337,803.8461,810.696,914.65204
803.0403,803.0403,807.47253,905.38464
779.67035,797.8022,801.02563,794.17584
776.8498,780.07324,786.1172,739.3773
758.71796,789.7436,795.78754,660.80585
785.31134,798.20514,807.0696,746.2271
818.7546,802.23444,812.71063,901.3553
777.6557,767.98535,778.86444,869.12085
751.06226,763.95605,770.80585,768.7912
751.8681,787.326,790.14655,649.92676
774.83514,793.36993,798.20514,705.9341
819.9634,796.1905,807.47253,890.87915
809.4872,797.8022,810.293,920.696
792.96704,801.4286,803.0403,828.4249
767.1795,792.5641,792.96704,676.9231
761.53845,785.31134,791.3553,689.81683
803.8461,795.38464,808.2784,880.40295
816.337,799.011,818.3516,933.9927
799.41394,789.7436,803.44324,855.82416
748.24176,759.12085,764.35895,686.99634
753.47986,763.5531,775.2381,670.07324
814.3223,787.72894,801.4286,866.7033
832.0513,794.17584,801.4286,943.2601
825.6044,802.23444,801.4286,884.0293
794.9817,804.2491,797.3993,738.97437
799.41394,804.2491,798.20514,689.41394
856.63007,815.12823,802.6374,871.53845
864.2857,821.5751,807.47253,965.42126
828.4249,815.5311,804.2491,890.07324
808.68134,811.0989,798.20514,755.09155
780.07324,778.86444,773.6264,666.4469
790.9524,763.1502,768.7912,807.8755
847.76556,804.65204,810.696,961.79486
855.82416,826.0073,832.4542,936.4103
823.5897,810.293,810.696,796.5934
809.4872,797.8022,790.9524,698.2784
835.6777,801.8315,799.41394,840.9158
844.5421,802.23444,802.23444,963.4066
830.84247,803.0403,801.02563,919.0842
811.0989,805.05493,798.60803,800.2198
796.99634,805.8608,796.1905,686.5934
816.337,806.6667,796.5934,790.14655
805.8608,780.4762,780.87915,915.4579
807.8755,784.90845,792.96704,914.2491
809.0842,797.3993,804.2491,825.2015
776.4469,781.685,783.2967,672.8938
796.5934,785.31134,788.1319,743.4066
838.0952,805.4579,805.05493,918.68134
830.4396,808.68134,802.6374,920.696
801.8315,804.2491,797.8022,812.3077
783.2967,800.2198,792.96704,665.2381
805.4579,795.38464,797.3993,720.84247
847.3626,809.0842,811.9048,908.60803
813.5165,792.5641,790.14655,910.6227
777.25275,770.40295,772.4176,807.47253
790.14655,796.5934,788.93774,685.78754
800.6227,800.6227,793.7729,709.15753
817.5458,788.93774,794.17584,884.43225
838.0952,803.44324,807.0696,943.2601
832.0513,808.2784,806.26373,880.40295
817.5458,799.011,798.20514,707.1429
847.76556,802.6374,811.0989,887.25275
841.31866,806.6667,811.9048,940.0366
828.4249,805.4579,803.44324,864.2857
794.9817,801.02563,789.34064,713.9927
799.41394,797.3993,792.96704,672.49084
839.304,805.4579,807.47253,852.6007
799.41394,799.41394,790.14655,725.2747
825.2015,791.75824,792.96704,918.2784
765.56775,752.674,754.68866,823.9927
767.1795,778.0586,779.67035,709.9634
788.1319,798.60803,802.6374,665.64105
811.9048,799.81683,806.26373,829.2308
825.2015,809.4872,809.0842,935.6044
815.5311,807.0696,805.8608,883.22345
783.69965,798.20514,800.6227,750.2564
745.42126,776.8498,776.4469,633.8095
785.31134,786.1172,785.31134,790.14655
826.8132,803.8461,807.47253,944.87177
803.8461,789.34064,799.41394,892.8938
754.2857,762.74725,766.3736,739.7802
757.1062,779.67035,772.8205,634.61536
796.99634,799.81683,796.1905,765.56775
820.3663,801.4286,796.99634,919.0842
821.5751,805.05493,801.02563,911.8315
786.9231,799.41394,795.78754,795.78754
800.6227,799.81683,799.81683,758.71796
775.64105,799.011,792.1612,665.64105
815.12823,797.3993,803.0403,920.293
813.1135,802.6374,804.65204,919.0842
803.0403,809.89014,806.26373,823.5897
767.1795,792.96704,786.9231,670.4762
742.6007,746.63007,748.6447,686.5934
799.41394,768.3883,779.67035,877.1795
823.5897,804.2491,809.0842,931.5751
797.3993,798.20514,796.1905,835.6777
778.0586,788.93774,792.5641,686.1905
794.57874,794.17584,798.60803,721.2454
823.1868,804.65204,808.68134,900.14655
807.47253,794.17584,801.02563,923.1135
794.57874,790.9524,796.99634,836.08057
773.6264,794.17584,801.02563,684.9817
767.5824,760.32965,779.67035,832.0513
777.6557,767.1795,781.685,898.1319
777.25275,799.011,799.81683,693.44324
798.20514,797.3993,804.65204,858.6447
775.2381,794.17584,800.6227,703.91943
771.6117,789.34064,798.60803,662.8205
806.6667,792.1612,809.0842,845.7509
820.7692,797.8022,811.0989,936.0073
806.26373,794.17584,803.8461,872.3443
783.69965,792.96704,796.99634,730.9158
781.28204,801.4286,795.38464,668.46155
815.9341,815.5311,811.50183,833.2601
815.9341,808.2784,807.47253,927.1429
739.3773,753.47986,757.1062,821.1722
718.8278,745.82416,753.8828,688.20514
767.5824,794.57874,789.7436,653.1502
803.0403,806.26373,801.02563,809.0842
825.2015,803.44324,810.696,933.1868
821.1722,807.8755,814.7253,904.57874
789.34064,804.65204,801.4286,776.8498
765.9707,791.75824,791.3553,648.71796
790.14655,786.52014,796.5934,759.92676
817.9487,794.9817,804.2491,904.57874
806.26373,797.8022,801.8315,890.4762
743.8095,761.53845,768.7912,747.4359
728.0952,760.32965,771.2088,623.73627
798.20514,795.78754,809.4872,758.315
817.5458,792.5641,810.293,916.26373
794.57874,781.685,796.1905,904.57874
790.14655,793.36993,804.2491,815.9341
768.3883,788.93774,802.23444,676.9231
813.5165,795.78754,807.0696,908.20514
794.57874,790.14655,803.0403,917.0696
784.90845,797.3993,807.0696,836.8865
757.9121,794.17584,792.1612,685.78754
786.52014,788.5348,802.6374,740.18317
720.4396,753.47986,752.27106,670.07324
773.22345,768.7912,778.0586,865.89746
813.91943,800.2198,810.696,940.0366
786.9231,792.5641,800.2198,846.1539
761.53845,796.5934,793.36993,694.65204
771.2088,800.6227,797.8022,701.50183
801.4286,795.38464,806.26373,876.77655
783.69965,781.685,793.36993,914.2491
765.16486,788.1319,794.57874,839.304
767.1795,803.8461,805.8608,698.2784
768.7912,804.2491,803.8461,667.6557
753.8828,776.04395,772.01465,814.3223
759.12085,765.56775,768.3883,880
794.9817,792.96704,799.011,855.82416
780.07324,799.011,798.20514,743.4066
763.95605,796.5934,794.57874,683.7729
800.6227,798.60803,807.47253,833.2601
818.7546,807.0696,821.5751,929.5604
796.1905,803.44324,803.44324,873.5531
772.4176,794.9817,783.2967,734.94507
769.59705,796.99634,792.1612,654.35895
819.15753,807.8755,814.7253,927.5458
799.011,806.26373,806.6667,886.8498
803.44324,803.44324,810.696,807.0696
778.46155,803.44324,806.6667,765.16486
768.3883,799.41394,807.47253,656.77655
778.0586,786.52014,803.44324,768.7912
784.5055,780.4762,799.41394,901.75824
792.1612,796.99634,807.0696,895.31134
770.40295,795.38464,798.60803,784.90845
747.03296,783.69965,786.52014,647.1062
776.4469,790.9524,793.7729,740.18317
796.5934,801.02563,804.2491,914.2491
787.72894,801.8315,803.44324,913.8461
749.85345,784.10254,780.4762,789.34064
730.5128,780.07324,772.4176,643.47986
770.80585,790.9524,795.78754,726.4835
794.9817,788.93774,806.6667,896.1172
788.93774,788.93774,802.6374,908.60803
781.685,796.1905,801.8315,831.2454
766.3736,796.5934,794.9817,686.1905
783.2967,798.20514,799.81683,714.3956
821.978,804.65204,815.5311,896.1172
826.4103,809.89014,812.3077,933.1868
793.7729,801.4286,801.02563,838.9011
760.32965,790.14655,795.38464,687.3993
772.01465,790.9524,800.2198,699.0842
801.02563,792.5641,807.0696,883.22345
815.5311,804.65204,814.7253,947.28937
788.5348,796.1905,799.011,853.4066
699.89014,736.55676,743.4066,639.0476
720.84247,738.97437,748.6447,624.1392
819.5604,792.5641,804.2491,865.89746
824.3956,800.2198,812.71063,947.28937
806.6667,801.8315,805.4579,874.7619
792.96704,805.05493,801.02563,738.5714
788.93774,796.5934,799.011,675.31134
817.5458,796.1905,805.8608,838.9011
827.619,802.23444,813.1135,940.4396
805.4579,800.2198,808.68134,885.2381
783.2967,794.9817,798.20514,747.4359
755.09155,771.2088,774.43225,638.6447
775.64105,764.7619,778.0586,779.2674
818.7546,788.5348,804.2491,922.71063
811.0989,792.1612,803.0403,888.0586
786.9231,787.72894,799.011,760.7326
779.67035,789.7436,802.6374,655.56775
816.7399,797.8022,807.8755,789.34064
836.8865,802.23444,811.0989,934.3956
806.26373,803.44324,807.0696,898.5348
777.6557,801.8315,799.011,779.2674
772.8205,803.0403,799.81683,662.8205
778.0586,789.34064,795.78754,741.39197
758.315,748.6447,767.5824,858.24176
783.2967,763.5531,785.31134,864.2857
800.2198,799.41394,813.91943,799.011
752.674,792.96704,792.5641,649.92676
771.6117,789.7436,788.1319,705.5311
818.7546,801.8315,810.696,889.2674
799.81683,801.4286,811.9048,896.9231
771.6117,794.17584,799.011,793.7729
759.92676,788.93774,790.14655,651.9414
782.8938,796.1905,801.02563,706.337
816.337,810.696,814.3223,898.1319
774.0293,778.0586,782.0879,892.49084
737.3626,755.4945,763.5531,785.7143
757.9121,790.54944,790.54944,675.31134
782.8938,803.0403,802.6374,698.2784
816.337,801.4286,810.696,881.2088
824.3956,805.05493,815.5311,938.022
807.47253,811.0989,805.05493,864.68866
785.7143,812.71063,790.54944,720.0366
779.2674,801.02563,791.75824,680.9524
805.05493,801.4286,803.44324,851.39197
833.663,813.91943,815.12823,941.2454
799.81683,806.26373,805.05493,857.4359
730.9158,764.35895,763.95605,678.93774
759.5238,775.64105,783.69965,657.5824
817.1429,803.8461,814.3223,852.1978
813.5165,797.8022,803.0403,934.3956
802.23444,791.75824,798.20514,876.77655
793.36993,797.3993,800.2198,751.8681
786.1172,800.6227,801.4286,671.685
812.71063,803.8461,805.4579,817.5458
830.4396,808.2784,802.6374,938.8278
819.15753,804.65204,803.44324,902.5641
801.4286,803.8461,799.41394,775.64105
770.80585,786.1172,774.43225,656.3736
782.49084,769.19415,770.80585,773.22345
831.2454,793.7729,800.6227,930.7692
836.08057,805.05493,806.6667,916.26373
817.9487,800.6227,795.38464,798.20514
799.81683,798.60803,790.9524,673.69965
815.5311,800.2198,802.23444,775.64105
803.44324,799.011,794.9817,810.293
833.663,797.8022,811.0989,933.1868
820.3663,799.81683,804.2491,915.8608
788.1319,792.1612,790.54944,684.57874
803.44324,794.9817,793.36993,750.65936
833.663,802.6374,801.8315,910.2198
839.304,805.8608,806.6667,923.5165
815.9341,803.44324,805.8608,827.619
770,784.90845,783.69965,667.6557
747.4359,752.674,751.8681,680.9524
802.6374,774.0293,781.685,873.5531
823.9927,796.5934,806.26373,920.696
801.8315,791.3553,799.41394,833.2601
785.7143,789.34064,795.38464,682.5641
800.6227,797.8022,803.8461,701.50183
829.6337,804.2491,810.293,884.43225
815.5311,794.17584,795.38464,914.2491
804.2491,796.1905,797.3993,848.97437
792.5641,792.5641,792.96704,680.9524
801.8315,780.4762,782.0879,845.34796
814.3223,782.8938,786.9231,915.4579
828.022,798.60803,800.6227,871.9414
792.5641,798.60803,800.6227,707.1429
792.5641,800.2198,796.99634,729.304
782.8938,797.8022,794.9817,674.5055
821.1722,799.011,805.05493,846.9597
827.619,803.0403,807.0696,942.0513
808.68134,797.8022,804.65204,889.67035
780.07324,792.96704,798.60803,746.63007
770,793.36993,788.5348,663.22345
812.3077,803.44324,802.6374,840.5128
818.7546,794.57874,801.4286,943.2601
774.43225,758.315,763.5531,850.18317
772.01465,770,771.2088,732.52747
774.43225,794.17584,788.5348,654.7619
779.67035,782.0879,786.52014,772.8205
798.20514,797.3993,806.6667,896.52014
772.8205,794.9817,796.99634,778.0586
756.30035,793.36993,791.75824,660.40295
780.87915,799.011,798.20514,764.35895
815.5311,809.0842,811.0989,921.0989
751.4652,772.4176,782.0879,775.2381
741.79486,772.8205,774.83514,638.6447
806.26373,802.6374,811.9048,911.4286
803.0403,785.31134,802.23444,913.8461
794.17584,796.5934,799.011,741.39197
819.9634,800.6227,808.68134,913.0403
806.6667,798.20514,807.47253,921.9048
787.326,795.78754,803.0403,828.4249
782.0879,801.8315,798.60803,694.65204
808.68134,785.7143,797.8022,886.04395
818.7546,795.78754,803.8461,921.0989
817.9487,809.0842,808.68134,850.58606
772.01465,794.17584,788.5348,699.0842
795.38464,796.5934,798.20514,728.49817
722.0513,744.61536,744.21246,657.98535
823.9927,802.23444,811.50183,933.1868
801.02563,799.81683,806.6667,847.3626
774.83514,759.12085,770,846.55676
772.4176,795.78754,800.2198,697.8755
778.0586,794.57874,801.8315,694.65204
807.8755,800.2198,810.293,881.2088
811.0989,804.2491,812.3077,936.0073
800.6227,804.65204,809.89014,861.8681
768.3883,798.20514,799.41394,666.4469
774.83514,802.6374,800.2198,716.0073
752.674,753.47986,768.3883,793.36993
743.8095,730.9158,753.0769,857.8388
793.36993,784.5055,800.2198,852.6007
784.10254,799.41394,807.0696,731.31866
766.3736,787.326,794.9817,647.9121
805.4579,796.1905,805.05493,814.3223
812.3077,798.60803,809.4872,885.2381
795.38464,797.8022,798.60803,757.1062
787.326,795.78754,790.14655,653.95605
822.381,801.4286,813.91943,928.3516
813.1135,807.8755,804.65204,804.2491
809.89014,801.8315,798.20514,928.3516
749.45056,751.8681,751.4652,843.3333
785.31134,805.4579,800.2198,666.8498
783.69965,780.07324,786.9231,756.30035
790.54944,772.4176,786.1172,890.07324
762.74725,776.4469,772.8205,748.24176
804.65204,794.9817,805.8608,891.28204
788.5348,800.6227,805.8608,793.36993
761.53845,791.3553,792.1612,649.92676
788.93774,792.1612,796.5934,731.7216
815.9341,803.0403,807.47253,907.8022
809.4872,805.4579,807.47253,910.2198
768.3883,782.0879,780.4762,794.17584
746.63007,770.80585,774.43225,658.7912
792.96704,792.96704,800.2198,739.7802
817.5458,796.1905,803.0403,905.78754
803.8461,788.5348,794.17584,914.65204
798.60803,796.1905,796.99634,836.4835
784.5055,802.6374,796.99634,692.6374
799.41394,800.2198,798.20514,709.15753
834.4689,801.4286,805.8608,887.25275
815.9341,799.011,807.0696,924.3223
785.31134,795.78754,805.8608,843.3333
759.92676,789.34064,797.8022,688.20514
754.2857,786.52014,794.17584,668.46155
792.1612,796.99634,807.47253,853.8095
809.4872,796.5934,809.0842,917.8755
777.6557,784.10254,802.23444,845.34796
739.7802,772.8205,786.52014,696.26373
763.5531,785.31134,790.54944,671.685
807.8755,794.57874,805.05493,847.76556
776.04395,786.52014,786.9231,829.2308
768.3883,788.1319,785.31134,695.4579
759.5238,789.34064,782.49084,625.7509
795.78754,802.6374,788.1319,787.72894
789.7436,801.4286,796.5934,849.3773
811.9048,811.50183,792.5641,894.10254
756.7033,792.5641,792.1612,726.8865
765.16486,779.2674,788.1319,757.50916
730.5128,776.8498,780.4762,623.3333
793.7729,786.52014,795.78754,902.96704
807.0696,794.57874,801.02563,898.5348
791.75824,798.60803,797.3993,869.92676
762.3443,795.38464,786.1172,749.85345
757.50916,793.36993,779.67035,642.674
781.28204,797.3993,791.3553,764.35895
786.9231,795.78754,799.81683,901.3553
772.4176,787.326,790.14655,873.1502
761.9414,791.3553,787.326,767.1795
755.4945,795.78754,786.52014,641.4652
770.80585,791.3553,792.5641,722.8571
784.5055,780.87915,798.20514,873.5531
794.57874,784.5055,795.38464,882.8205
792.5641,791.75824,792.1612,793.36993
757.50916,786.1172,784.90845,649.12085
765.16486,786.1172,788.5348,695.4579
791.3553,792.5641,796.5934,859.85345
778.46155,794.17584,794.9817,876.77655
762.74725,800.6227,793.36993,792.96704
742.6007,799.41394,786.52014,642.27106
750.65936,792.5641,783.2967,654.35895
785.7143,792.1612,790.54944,845.34796
785.31134,788.5348,788.1319,896.1172
756.7033,791.3553,786.9231,809.0842
726.4835,789.7436,785.31134,654.7619
737.76556,783.2967,788.5348,646.30035
778.86444,781.28204,796.1905,827.2161
775.64105,799.011,790.54944,834.4689
791.3553,787.72894,796.1905,898.5348
755.09155,801.8315,779.2674,683.7729
753.0769,796.1905,782.49084,646.30035
781.685,796.5934,796.99634,823.1868
801.4286,808.2784,806.6667,912.6374
790.54944,806.6667,796.99634,845.7509
736.55676,768.7912,752.27106,676.52014
718.8278,753.47986,741.79486,596.7399
779.67035,784.5055,790.9524,787.72894
804.2491,796.1905,808.68134,912.6374
792.5641,796.1905,803.8461,867.50916
769.19415,797.3993,791.3553,730.10986
743.00366,794.9817,774.43225,620.10986
753.47986,794.9817,776.4469,744.61536
774.43225,795.78754,786.52014,873.95605
777.6557,802.6374,793.36993,848.5714
764.7619,809.89014,786.52014,728.9011
707.1429,770.80585,753.0769,584.65204
724.4689,767.5824,764.35895,699.0842
786.9231,808.68134,799.41394,882.01465
771.2088,803.44324,792.96704,860.65936
740.58606,790.14655,778.46155,747.4359
737.76556,798.20514,786.1172,633.00366
795.38464,792.1612,801.4286,892.8938
777.25275,792.5641,794.9817,798.20514
760.32965,805.4579,784.5055,650.7326
774.43225,803.8461,781.28204,691.02563
786.1172,789.7436,800.2198,877.1795
774.83514,773.22345,763.95605,830.84247
769.59705,772.8205,772.8205,855.0183
753.47986,791.75824,795.78754,713.9927
769.59705,789.7436,793.36993,793.7729
743.00366,780.4762,780.87915,649.5238
760.32965,777.6557,782.49084,675.31134
802.23444,798.60803,800.6227,860.2564
789.7436,800.2198,791.3553,882.01465
746.63007,782.8938,769.19415,781.28204
724.0659,783.69965,775.2381,641.4652
736.1539,782.0879,789.34064,646.7033
781.685,793.36993,805.8608,836.08057
775.2381,790.54944,790.54944,876.77655
749.45056,775.2381,774.83514,792.5641
743.00366,788.5348,790.14655,671.28204
730.10986,786.9231,797.8022,643.0769
771.2088,786.1172,808.2784,831.2454
801.02563,797.8022,808.68134,919.4872
763.5531,798.20514,792.96704,825.2015
731.31866,792.1612,782.8938,672.8938
738.5714,796.99634,786.52014,626.55676
771.2088,799.011,794.9817,791.3553
801.8315,800.6227,801.8315,895.31134
695.05493,765.56775,758.71796,688.60803
776.04395,801.4286,797.3993,853.4066
702.3077,764.35895,772.4176,611.2454
773.22345,792.1612,811.9048,795.38464
767.1795,785.7143,794.57874,889.2674
749.0476,782.49084,772.8205,831.6484
765.56775,802.6374,785.7143,747.03296
746.63007,803.8461,788.1319,641.06226
763.95605,800.6227,799.81683,747.03296
793.36993,801.4286,809.89014,882.8205
775.2381,800.2198,805.05493,870.32965
751.06226,794.9817,796.5934,771.6117
716.8132,777.25275,775.2381,623.73627
749.45056,786.1172,788.5348,716.8132
799.41394,805.8608,812.71063,895.31134
792.1612,801.02563,806.6667,890.07324
746.63007,777.25275,781.685,766.3736
732.9304,782.49084,782.8938,632.6007
768.3883,798.20514,799.41394,710.3663
791.3553,800.6227,799.41394,881.6117
798.60803,806.26373,802.6374,915.4579
790.14655,809.4872,797.3993,839.304
773.6264,804.65204,783.2967,687.3993
792.1612,800.6227,784.90845,711.1722
814.7253,805.4579,801.8315,893.2967
797.3993,805.4579,807.0696,921.9048
788.1319,804.2491,802.6374,844.94507
772.4176,795.38464,786.52014,703.1135
732.52747,749.45056,753.0769,663.22345
760.7326,747.03296,761.53845,835.2747
817.5458,786.1172,800.6227,931.978
805.4579,786.9231,803.8461,871.53845
774.0293,780.87915,795.38464,724.0659
773.22345,782.49084,794.57874,695.4579
817.5458,790.14655,803.0403,945.6777
805.4579,788.5348,802.6374,873.95605
815.12823,796.5934,799.011,889.2674
804.2491,805.4579,798.60803,760.32965
797.8022,794.9817,799.81683,701.0989
788.5348,761.9414,780.4762,824.7985
809.0842,766.77655,779.67035,915.8608
830.84247,794.17584,801.02563,892.49084
809.89014,790.9524,798.20514,770.40295
789.7436,784.10254,792.96704,682.1612
820.3663,784.10254,805.4579,815.5311
863.0769,793.7729,813.91943,953.73627
845.34796,799.81683,812.71063,931.1722
814.7253,794.17584,808.2784,804.65204
807.0696,789.7436,801.02563,702.71063
834.87177,796.1905,810.696,828.8278
815.12823,757.1062,783.69965,910.2198
807.8755,759.5238,782.8938,811.9048
849.7802,788.93774,811.50183,953.3333
833.663,788.1319,797.8022,722.0513
869.92676,799.81683,812.3077,825.2015
879.59705,802.6374,823.5897,965.42126
866.30035,792.5641,817.5458,953.73627
851.39197,788.1319,807.47253,861.8681
824.3956,783.69965,799.011,733.73627
846.55676,782.8938,809.4872,802.23444
887.6557,796.1905,822.7839,972.27106
884.83514,803.0403,820.7692,985.9707
848.1685,780.4762,802.6374,877.98535
825.2015,770.40295,794.57874,734.94507
850.58606,780.4762,809.4872,789.7436
890.4762,793.7729,818.7546,969.85345
894.90845,799.41394,819.5604,995.2381
861.8681,795.38464,811.9048,772.01465
871.13556,800.2198,813.91943,783.69965
880,793.36993,817.5458,911.02563
902.1612,798.60803,822.381,958.5714
905.78754,799.011,818.7546,1006.52014
888.86444,805.05493,810.293,934.7985
850.58606,803.44324,794.57874,787.72894
817.9487,783.2967,774.43225,733.3333
839.304,779.67035,783.2967,886.4469
857.03296,792.5641,799.81683,963.00366
846.55676,795.78754,801.8315,902.96704
819.9634,790.54944,792.96704,765.9707
816.7399,795.38464,799.41394,716.8132
855.82416,793.36993,805.05493,969.0476
844.1392,794.57874,799.81683,927.9487
826.4103,794.57874,793.36993,797.3993
824.3956,801.02563,794.17584,698.68134
848.5714,797.8022,811.0989,875.9707
834.4689,796.5934,789.7436,825.2015
834.87177,782.49084,786.52014,929.9634
840.10986,793.7729,800.6227,900.9524
824.7985,799.011,794.57874,790.14655
796.99634,790.54944,781.685,678.5348
826.8132,794.9817,798.20514,804.2491
855.82416,806.26373,811.50183,953.3333
845.7509,806.6667,810.696,929.15753
830.0366,802.23444,809.0842,819.15753
812.3077,798.20514,798.60803,696.26373
832.4542,799.41394,805.05493,788.5348
857.03296,806.26373,814.3223,948.0952
844.94507,807.8755,804.65204,940.0366
817.9487,804.65204,798.20514,834.4689
800.6227,801.4286,790.9524,695.8608
807.47253,790.9524,783.2967,748.24176
802.23444,763.95605,772.01465,889.67035
806.6667,780.07324,785.7143,910.6227
805.4579,800.6227,794.9817,830.4396
779.67035,790.54944,786.9231,681.75824
793.36993,792.1612,792.1612,718.4249
824.7985,798.20514,799.011,892.8938
830.84247,799.011,798.60803,923.91943
813.91943,798.60803,791.75824,838.0952
795.38464,801.8315,792.1612,702.71063
801.02563,798.20514,797.3993,715.2015
828.022,796.1905,797.8022,875.56775
815.9341,782.49084,781.685,906.99634
805.05493,778.86444,778.86444,842.9304
805.4579,795.38464,788.93774,722.4542
809.4872,796.5934,791.75824,703.5165
833.2601,795.38464,805.05493,871.13556
834.4689,798.60803,810.696,938.8278
829.6337,800.2198,806.26373,877.5824
795.38464,796.99634,798.20514,735.7509
778.86444,796.5934,794.17584,677.326
819.15753,803.8461,804.2491,843.73627
834.4689,805.8608,807.8755,939.6337
805.4579,791.3553,798.60803,873.95605
749.85345,755.09155,764.7619,721.2454
756.7033,759.92676,759.12085,641.06226
822.7839,797.3993,793.7729,810.696
821.5751,801.4286,799.41394,925.12823
787.326,798.20514,796.5934,759.5238
774.0293,798.20514,791.75824,658.7912
810.696,797.8022,798.20514,915.4579
808.2784,802.6374,793.36993,898.1319
799.81683,794.57874,799.41394,873.5531
778.86444,794.17584,793.36993,790.9524
773.22345,775.64105,782.49084,745.0183
746.2271,771.6117,777.25275,651.13556
794.17584,794.57874,801.4286,782.49084
810.293,798.60803,801.8315,909.81683
807.47253,799.81683,802.6374,905.78754
794.9817,795.38464,798.20514,805.8608
781.28204,788.93774,789.7436,675.7143
799.41394,792.96704,794.9817,751.8681
821.1722,799.011,801.8315,913.8461
811.0989,789.34064,796.1905,916.6667
803.8461,792.5641,799.011,833.663
788.1319,799.81683,799.81683,702.3077
793.36993,795.38464,793.7729,732.9304
785.31134,765.56775,770,864.68866
789.34064,765.56775,778.46155,896.1172
801.02563,791.3553,798.20514,840.10986
766.77655,787.72894,787.72894,689.41394
765.9707,788.5348,788.93774,691.4286
801.02563,794.57874,800.6227,870.7326
802.23444,796.1905,803.0403,920.696
786.9231,794.9817,797.8022,842.9304
766.3736,791.75824,789.34064,699.89014
762.74725,792.1612,786.52014,677.326
799.81683,794.9817,795.38464,859.0476
797.8022,782.49084,788.1319,913.8461
771.2088,773.6264,782.0879,840.5128
764.35895,789.34064,787.326,721.2454
767.1795,795.78754,784.5055,676.9231
793.7729,789.7436,786.52014,836.8865
813.5165,793.7729,797.3993,931.978
806.6667,796.1905,795.78754,888.0586
784.5055,795.78754,786.1172,757.1062
772.8205,792.1612,783.2967,657.5824
799.81683,790.14655,788.5348,794.9817
819.15753,798.20514,800.6227,921.0989
805.05493,792.5641,794.17584,877.98535
736.1539,741.39197,740.58606,699.4872
734.1392,749.85345,747.03296,615.6777
801.4286,790.54944,793.7729,786.52014
804.2491,784.90845,796.99634,900.9524
783.69965,777.25275,787.72894,867.50916
784.90845,796.99634,797.3993,774.83514
784.90845,790.14655,794.17584,748.6447
806.26373,795.38464,803.8461,902.96704
770,796.99634,795.78754,657.1795
796.5934,797.3993,806.6667,904.17584
782.8938,799.41394,796.1905,797.3993
735.34796,765.56775,754.68866,636.2271
749.85345,757.1062,753.47986,708.3516
806.6667,792.96704,799.011,892.8938
800.6227,797.3993,799.81683,896.9231
778.86444,793.7729,786.52014,802.23444
764.35895,791.3553,786.9231,672.49084
782.8938,792.5641,794.9817,719.6337
811.9048,792.5641,801.4286,890.4762
780.07324,790.9524,794.57874,689.81683
813.1135,791.75824,799.81683,922.3077
802.23444,793.7729,795.78754,839.304
781.28204,786.1172,790.54944,696.6667
804.65204,781.685,789.7436,862.27106
818.7546,789.7436,799.41394,913.8461
810.293,799.41394,802.6374,845.7509
761.53845,779.2674,782.0879,686.99634
716.4103,736.1539,747.03296,630.989
787.72894,773.6264,786.52014,826.0073
829.6337,810.696,815.9341,920.696
798.20514,795.38464,799.81683,845.34796
772.8205,791.75824,795.38464,707.5458
771.6117,795.78754,794.57874,662.4176
804.2491,798.20514,803.44324,832.8571
791.3553,781.28204,787.326,904.57874
774.83514,781.685,781.28204,843.73627
779.2674,799.81683,805.05493,733.3333
772.01465,799.81683,804.65204,664.83514
779.67035,785.7143,790.9524,797.8022
805.8608,797.8022,807.0696,916.26373
809.89014,808.68134,816.337,892.8938
782.0879,797.3993,800.2198,766.77655
765.16486,793.7729,786.1172,660.40295
797.3993,805.4579,795.78754,797.3993
822.7839,814.3223,809.4872,939.6337
808.68134,802.23444,799.41394,900.54944
770,806.26373,788.5348,677.72894
780.87915,794.57874,783.2967,780.87915
804.65204,815.9341,808.68134,797.3993
806.6667,798.20514,802.6374,929.5604
744.61536,746.63007,753.8828,859.85345
751.8681,765.9707,766.3736,767.5824
777.6557,811.0989,800.2198,679.34064
790.14655,808.2784,802.6374,749.0476
811.0989,807.8755,814.3223,904.9817
816.337,817.1429,817.1429,918.2784
799.011,815.5311,810.293,823.9927
767.5824,807.8755,804.2491,682.1612
815.9341,821.1722,821.5751,905.78754
787.72894,811.0989,810.696,735.7509
811.9048,824.7985,821.1722,928.3516
748.6447,776.8498,782.49084,807.0696
701.50183,747.03296,753.0769,641.4652
765.56775,789.34064,787.72894,698.2784
805.4579,803.44324,807.8755,879.19415
792.96704,797.3993,805.4579,923.5165
784.90845,796.5934,802.6374,854.21246
781.28204,796.1905,796.99634,707.9487
779.2674,800.6227,799.81683,697.0696
805.05493,802.23444,807.47253,865.4945
815.9341,799.011,807.8755,927.9487
804.65204,803.0403,808.68134,869.92676
773.6264,796.99634,797.3993,729.707
721.6484,748.24176,754.68866,649.92676
751.8681,746.2271,763.5531,807.8755
813.1135,788.1319,805.8608,924.7253
809.0842,797.3993,805.05493,876.77655
779.67035,791.3553,797.3993,740.58606
780.4762,795.78754,796.5934,671.685
810.696,802.23444,804.65204,824.3956
819.9634,801.4286,808.2784,923.1135
801.02563,795.78754,799.41394,875.9707
776.04395,790.9524,788.1319,755.09155
761.9414,795.38464,787.72894,660.40295
747.03296,763.95605,766.77655,759.92676
755.89746,753.47986,765.9707,874.7619
788.93774,789.7436,801.4286,886.04395
776.04395,799.41394,799.81683,779.67035
750.65936,785.31134,786.52014,654.35895
783.2967,788.93774,801.02563,766.3736
807.47253,797.8022,809.89014,905.78754
803.44324,801.02563,805.05493,895.7143
786.9231,796.99634,797.8022,797.8022
769.19415,786.52014,787.72894,676.9231
800.2198,791.3553,795.38464,757.50916
821.1722,801.8315,806.26373,902.1612
781.685,783.2967,781.28204,882.4176
766.77655,780.07324,777.25275,799.011
767.5824,788.93774,787.72894,684.57874
790.54944,791.3553,791.3553,728.9011
824.7985,801.4286,797.8022,890.07324
824.7985,809.89014,804.65204,911.4286
801.8315,805.05493,803.8461,829.2308
780.07324,801.02563,797.3993,694.2491
783.2967,798.60803,796.99634,706.337
814.3223,801.8315,808.2784,879.59705
823.9927,808.2784,811.0989,925.12823
789.34064,796.99634,794.9817,831.6484
751.8681,778.0586,782.49084,676.52014
768.3883,786.9231,792.1612,679.7436
806.26373,800.6227,805.05493,861.06226
810.696,801.8315,808.2784,918.2784
803.0403,802.6374,804.65204,851.79486
782.0879,805.4579,797.8022,716.0073
780.07324,802.23444,796.5934,676.52014
815.9341,807.0696,806.6667,844.94507
821.978,811.50183,809.89014,938.022
809.0842,804.2491,803.0403,883.22345
788.93774,798.60803,794.17584,735.34796
762.3443,786.1172,780.87915,658.7912
801.8315,790.9524,795.78754,819.15753
827.619,802.6374,815.12823,932.7839
792.1612,786.9231,806.26373,880
768.3883,783.69965,793.36993,747.8388
775.2381,795.38464,796.1905,669.2674
801.4286,793.36993,798.60803,809.0842
812.3077,792.96704,798.20514,917.8755
803.8461,799.011,799.81683,877.98535
788.5348,799.011,796.1905,763.1502
774.43225,790.54944,787.326,649.5238
799.011,793.36993,795.78754,760.7326
819.9634,801.02563,803.44324,906.1905
805.4579,798.60803,797.3993,888.86444
775.2381,786.52014,786.9231,778.46155
729.707,757.9121,759.92676,632.6007
758.315,764.35895,773.6264,722.0513
811.50183,794.9817,806.26373,908.20514
797.8022,792.96704,802.6374,907.8022
752.674,768.3883,768.3883,779.67035
752.674,782.49084,771.6117,655.16486
796.5934,802.23444,799.41394,731.7216
823.5897,801.4286,804.2491,897.326
820.7692,807.47253,803.0403,922.71063
803.0403,804.2491,795.38464,835.2747
782.0879,799.81683,790.14655,696.6667
780.07324,794.57874,788.93774,713.9927
766.77655,755.89746,762.74725,849.7802
769.59705,755.4945,764.35895,877.1795
799.011,792.1612,794.57874,830.84247
773.22345,795.78754,787.72894,692.23444
775.64105,797.3993,792.5641,691.4286
818.3516,810.293,813.5165,872.3443
811.9048,809.0842,814.3223,922.3077
780.4762,802.23444,805.8608,826.8132
755.89746,799.81683,797.3993,698.2784
778.0586,803.8461,799.41394,688.60803
814.7253,804.65204,812.3077,843.3333
787.72894,785.31134,799.41394,898.93774
767.1795,777.25275,790.9524,841.7216
762.74725,793.36993,802.23444,732.52747
754.2857,794.9817,792.96704,668.0586
776.04395,782.49084,790.14655,811.0989
797.8022,788.5348,803.8461,917.0696
790.54944,792.1612,807.0696,877.5824
782.8938,788.5348,803.0403,763.1502
788.93774,792.96704,803.44324,681.3553
805.4579,797.8022,805.8608,803.0403
818.7546,807.47253,810.696,922.3077
801.4286,799.41394,799.41394,886.4469
737.3626,754.68866,749.0476,721.6484
737.3626,761.9414,757.50916,622.1245
798.60803,799.41394,799.81683,765.9707
809.0842,798.60803,805.4579,896.52014
801.8315,800.2198,807.0696,893.2967
795.38464,806.26373,802.6374,795.78754
773.22345,801.4286,790.54944,664.0293
782.49084,794.57874,791.75824,747.4359
805.8608,799.41394,804.65204,896.9231
804.2491,803.44324,805.05493,892.8938
794.17584,803.44324,801.8315,809.4872
752.27106,770.80585,766.3736,652.3443
767.5824,765.56775,768.7912,698.2784
819.9634,804.65204,813.91943,894.90845
813.91943,806.6667,813.1135,924.3223
810.293,805.05493,803.44324,849.7802
786.1172,806.26373,793.7729,702.71063
841.31866,818.3516,810.293,894.10254
815.5311,803.8461,798.60803,842.9304
840.9158,818.7546,806.6667,929.9634
813.1135,803.44324,801.8315,727.28937
807.0696,801.02563,799.011,717.2161
750.65936,730.9158,735.7509,859.85345
793.7729,782.49084,785.31134,847.76556
795.78754,802.23444,801.4286,725.6777
785.7143,796.1905,796.5934,684.9817
780.07324,753.0769,755.89746,832.8571
794.57874,809.89014,799.41394,717.619
820.7692,802.23444,810.293,856.2271
825.2015,796.99634,809.0842,922.71063
807.0696,791.75824,799.41394,861.8681
792.1612,792.1612,796.99634,738.1685
796.99634,793.7729,795.78754,677.326
834.87177,803.8461,808.2784,843.3333
810.293,780.07324,784.10254,914.2491
780.87915,765.9707,772.8205,852.1978
797.8022,795.78754,805.05493,755.89746
773.6264,788.93774,796.5934,657.98535
780.07324,777.25275,790.54944,776.8498
815.12823,797.8022,811.50183,912.23444
817.5458,802.23444,812.71063,887.6557
801.8315,794.17584,802.6374,768.3883
780.87915,791.75824,794.9817,667.6557
808.2784,798.60803,805.4579,789.34064
839.304,807.8755,818.3516,931.5751
826.4103,804.2491,808.68134,906.5934
789.34064,789.7436,790.14655,782.8938
785.31134,788.5348,792.1612,673.2967
825.6044,802.23444,809.0842,776.04395
832.8571,792.5641,802.23444,909.011
767.98535,746.2271,752.674,855.82416
765.9707,770,766.77655,776.8498
783.2967,806.26373,796.5934,676.52014
826.4103,811.50183,803.8461,899.7436
830.84247,815.5311,805.4579,918.2784
805.4579,805.4579,792.96704,823.5897
770.80585,788.5348,777.25275,670.07324
794.57874,797.8022,791.3553,705.9341
822.7839,808.68134,808.68134,882.8205
796.99634,806.6667,798.20514,734.5421
816.7399,801.4286,802.6374,911.8315
763.5531,765.9707,762.74725,795.38464
749.45056,771.2088,763.5531,662.4176
789.7436,802.23444,797.3993,695.4579
813.5165,799.011,803.44324,859.0476
811.0989,791.3553,796.1905,903.36993
815.12823,806.26373,803.0403,856.2271
801.02563,808.68134,802.23444,728.49817
829.2308,803.0403,800.6227,868.315
803.44324,802.6374,794.9817,701.50183
811.9048,810.696,806.6667,877.5824
775.2381,793.36993,790.9524,725.2747
703.91943,731.31866,732.1245,603.5897
755.09155,745.42126,749.85345,776.04395
838.9011,799.41394,806.26373,937.2161
824.7985,806.26373,804.2491,938.022
814.7253,800.6227,809.0842,883.6264
779.67035,801.8315,804.2491,682.1612
806.6667,799.81683,808.2784,814.3223
779.67035,801.02563,805.4579,752.27106
797.3993,786.52014,796.1905,875.16486
771.6117,802.6374,796.99634,660
741.79486,755.09155,763.5531,729.304
800.2198,782.8938,793.36993,899.7436
761.53845,756.7033,769.59705,866.7033
797.3993,797.3993,808.2784,893.69965
799.41394,809.0842,802.6374,775.2381
782.49084,802.23444,799.41394,790.54944
767.5824,795.78754,795.38464,672.8938
794.17584,794.9817,803.44324,765.9707
822.7839,803.8461,811.50183,912.6374
813.5165,804.65204,807.0696,902.5641
780.07324,791.75824,789.7436,790.9524
771.6117,794.17584,790.14655,666.4469
803.0403,809.89014,807.0696,747.03296
815.12823,801.4286,807.0696,902.5641
738.1685,734.5421,744.21246,849.7802
743.8095,739.3773,749.0476,778.46155
784.10254,791.3553,792.5641,697.8755
794.9817,795.78754,796.99634,724.4689
834.0659,803.44324,811.50183,894.10254
830.0366,807.8755,819.5604,934.7985
804.2491,801.02563,809.89014,842.9304
777.6557,793.7729,797.8022,686.5934
782.49084,792.5641,800.6227,693.8461
817.1429,803.8461,807.8755,867.9121
829.6337,818.3516,813.1135,923.5165
705.5311,741.79486,737.76556,644.2857
770.80585,780.4762,773.22345,823.9927
755.4945,780.4762,781.28204,662.01465
810.293,803.44324,809.0842,923.5165
814.3223,806.6667,811.50183,860.65936
796.5934,802.6374,808.2784,863.47986
776.4469,799.81683,800.6227,726.08057
784.10254,801.02563,800.2198,676.9231
816.7399,804.2491,812.3077,845.34796
815.5311,802.23444,811.50183,931.5751
807.0696,803.0403,807.8755,879.19415
784.5055,801.8315,798.20514,749.85345
725.6777,762.74725,755.09155,629.3773
757.9121,767.1795,770,772.4176
821.5751,799.41394,815.12823,920.696
803.8461,794.9817,809.89014,882.8205
772.01465,794.17584,799.41394,763.5531
768.7912,799.41394,807.8755,670.07324
798.60803,797.3993,815.5311,788.5348
829.6337,801.02563,818.3516,922.71063
820.7692,806.6667,814.7253,900.14655
785.31134,800.2198,804.2491,786.9231
765.56775,787.72894,783.2967,738.97437
772.01465,774.43225,785.7143,876.77655
766.77655,795.78754,795.78754,666.8498
785.31134,787.326,807.8755,891.28204
770,793.7729,807.8755,796.99634
760.32965,797.8022,803.44324,674.90845
777.6557,799.81683,809.89014,740.18317
801.02563,799.011,815.9341,895.31134
799.81683,801.02563,811.9048,904.17584
784.5055,796.1905,801.02563,807.47253
772.8205,797.8022,789.7436,672.0879
788.1319,801.4286,791.75824,706.7399
814.7253,801.02563,799.81683,876.3736
809.4872,802.23444,797.3993,909.41394
805.05493,804.65204,801.4286,839.707
787.326,799.81683,799.011,705.9341
782.8938,789.7436,792.96704,701.50183
801.4286,782.0879,793.7729,856.2271
820.3663,792.5641,805.8608,920.293
806.26373,799.41394,809.0842,862.674
767.98535,799.41394,797.8022,713.1868
793.7729,796.99634,806.6667,842.9304
811.9048,807.0696,812.3077,924.7253
761.53845,791.75824,794.9817,672.49084
787.326,805.8608,800.6227,854.21246
755.09155,804.2491,792.96704,705.12823
756.7033,800.2198,793.7729,651.9414
780.07324,796.1905,798.60803,804.65204
783.2967,789.34064,797.3993,883.22345
771.2088,792.1612,794.57874,838.49817
748.6447,794.9817,790.9524,716.4103
733.73627,791.3553,790.54944,633.4066
788.5348,810.696,795.78754,865.09155
770,804.65204,784.10254,745.0183
794.9817,806.26373,805.8608,898.1319
767.5824,797.3993,803.0403,780.07324
745.0183,792.96704,780.87915,637.4359
777.6557,801.02563,790.54944,759.12085
809.4872,812.3077,799.011,898.93774
795.38464,799.011,792.1612,871.53845
763.5531,772.01465,777.25275,750.65936
740.989,769.19415,778.86444,641.8681
773.22345,784.10254,796.99634,751.8681
810.293,790.9524,802.6374,902.1612
805.4579,791.3553,797.3993,892.49084
786.52014,801.02563,788.93774,790.14655
774.0293,801.8315,785.31134,656.77655
767.98535,792.1612,790.54944,713.9927
772.8205,792.1612,794.9817,865.09155
779.2674,796.1905,798.20514,883.6264
777.6557,799.011,794.9817,805.4579
732.9304,767.1795,759.92676,640.65936
724.0659,749.0476,748.6447,664.0293
789.7436,788.5348,789.34064,861.8681
790.9524,794.17584,796.99634,896.9231
753.0769,777.25275,787.72894,814.7253
743.8095,778.86444,783.69965,670.07324
771.6117,792.5641,790.54944,675.31134
797.3993,801.4286,803.44324,848.97437
796.99634,795.78754,803.0403,902.96704
784.90845,794.9817,799.81683,834.0659
763.5531,801.8315,801.8315,690.6227
764.35895,793.7729,797.3993,664.0293
740.989,740.58606,757.9121,782.0879
745.0183,728.9011,754.68866,845.7509
798.20514,780.07324,799.011,841.31866
799.81683,801.4286,800.2198,709.5604
782.49084,799.011,786.9231,645.09155
812.71063,809.89014,797.8022,808.68134
820.3663,808.2784,803.44324,890.87915
790.54944,791.3553,799.41394,832.8571
770.80585,788.5348,799.41394,719.6337
770.80585,792.96704,799.81683,655.16486
797.8022,804.65204,802.23444,793.36993
771.6117,778.86444,767.1795,863.0769
746.2271,763.1502,759.5238,821.1722
767.1795,788.93774,794.57874,736.1539
763.95605,790.9524,794.57874,634.21246
764.7619,785.7143,793.36993,747.03296
780.07324,783.69965,803.8461,875.56775
783.69965,788.93774,806.6667,867.50916
763.1502,794.17584,792.96704,751.4652
736.9597,795.78754,774.83514,608.4249
758.71796,796.99634,780.87915,714.7985
789.34064,801.02563,797.3993,880.80585
778.46155,790.9524,796.5934,867.9121
720.0366,743.4066,758.71796,728.49817
724.87177,747.8388,764.35895,624.1392
795.78754,790.54944,801.4286,745.0183
813.5165,797.3993,805.05493,888.86444
799.81683,797.3993,805.8608,883.22345
783.69965,799.41394,808.2784,792.1612
766.77655,797.8022,801.4286,654.7619
781.685,797.3993,798.20514,700.293
801.4286,803.0403,807.0696,871.53845
786.9231,801.02563,802.23444,882.4176
773.22345,801.4286,791.75824,780.87915
731.7216,780.87915,764.7619,626.1539
713.5897,753.0769,751.06226,623.3333
780.07324,780.07324,800.6227,819.9634
800.6227,798.60803,820.3663,885.2381
771.6117,793.36993,808.68134,812.71063
762.3443,797.8022,806.6667,692.6374
778.0586,807.8755,808.2784,696.26373
789.34064,805.8608,813.5165,832.8571
789.7436,801.02563,814.3223,875.9707
783.69965,799.41394,805.4579,827.2161
765.16486,800.6227,796.5934,698.68134
757.9121,790.54944,790.54944,643.47986
742.1978,753.0769,756.30035,762.3443
766.77655,763.5531,760.32965,866.30035
806.6667,800.6227,801.8315,865.4945
776.04395,792.5641,794.57874,734.94507
754.2857,780.4762,778.46155,658.7912
808.68134,802.23444,796.99634,825.6044
844.1392,817.5458,809.89014,938.4249
839.707,815.5311,804.2491,896.1172
803.0403,808.2784,798.20514,767.98535
780.4762,795.78754,801.8315,671.28204
815.9341,796.99634,813.1135,807.8755
828.022,802.23444,813.91943,928.7546
817.5458,805.8608,804.65204,894.90845
802.23444,807.8755,796.99634,782.8938
776.04395,796.99634,789.7436,660.40295
777.25275,767.5824,767.5824,739.3773
805.4579,775.2381,771.6117,893.2967
818.3516,803.0403,803.8461,914.2491
799.011,796.5934,802.23444,814.3223
793.7729,794.57874,796.1905,686.5934
840.9158,805.05493,811.9048,779.67035
857.8388,807.8755,819.5604,940.0366
838.0952,807.47253,812.71063,931.978
829.6337,807.47253,806.26373,845.34796
815.12823,803.0403,798.60803,718.4249
835.2747,803.44324,805.05493,765.56775
859.85345,803.0403,813.91943,928.7546
816.7399,764.35895,777.6557,915.8608
802.23444,751.06226,769.19415,833.663
824.7985,780.87915,798.20514,729.304
849.7802,788.93774,807.0696,757.9121
896.9231,797.3993,819.5604,940.4396
901.3553,808.68134,825.2015,989.59705
883.22345,807.0696,818.7546,913.44324
862.27106,801.4286,806.26373,766.3736
867.1062,804.2491,800.6227,767.5824
901.3553,813.1135,815.12823,940.0366
902.1612,810.696,815.9341,983.1502
849.3773,777.6557,784.90845,905.78754
825.6044,767.1795,778.46155,774.0293
864.68866,791.3553,807.8755,763.1502
893.69965,795.38464,816.7399,926.7399
875.16486,780.4762,800.6227,985.16486
874.35895,793.7729,805.8608,950.5128
864.68866,808.2784,807.0696,830.4396
845.34796,797.3993,799.41394,747.8388
883.6264,810.293,818.3516,976.30035
873.95605,817.9487,817.1429,927.9487
832.8571,810.293,803.8461,795.78754
865.89746,799.011,810.293,887.6557
784.5055,765.9707,766.3736,664.43225
818.7546,770.40295,784.5055,798.60803
864.2857,807.0696,820.7692,959.3773
855.42126,805.4579,814.3223,933.1868
832.0513,800.2198,805.8608,817.5458
818.3516,802.6374,798.20514,717.619
844.5421,805.4579,802.23444,817.9487
853.8095,796.99634,801.02563,933.9927
830.0366,794.57874,797.8022,917.0696
812.71063,800.6227,792.96704,814.3223
796.1905,805.4579,789.34064,690.6227
790.14655,788.1319,779.2674,753.8828
811.50183,780.87915,784.10254,894.90845
829.2308,798.20514,804.65204,916.26373
811.9048,799.011,796.5934,816.337
782.0879,792.5641,789.7436,674.5055
792.1612,793.7729,800.6227,732.9304
828.4249,802.6374,807.8755,928.7546
821.5751,799.011,805.4579,900.14655
796.99634,797.8022,800.6227,713.9927
830.84247,803.44324,809.0842,892.8938
811.9048,782.0879,789.34064,917.0696
830.84247,809.89014,814.7253,845.7509
804.2491,807.0696,803.44324,691.4286
788.1319,765.9707,778.46155,838.0952
798.20514,782.8938,788.93774,711.5751
806.6667,788.1319,795.38464,713.9927
836.4835,797.8022,808.68134,895.31134
844.5421,804.65204,813.5165,946.08057
820.7692,799.41394,802.6374,861.06226
788.1319,794.57874,786.9231,716.0073
789.34064,788.93774,785.7143,683.7729
834.4689,799.41394,795.78754,844.1392
844.1392,813.1135,800.2198,913.8461
794.57874,792.5641,782.49084,844.1392
768.3883,785.7143,778.0586,723.663
775.64105,792.5641,792.5641,677.72894
796.5934,787.326,797.3993,816.337
801.8315,779.2674,797.3993,903.36993
807.0696,788.1319,805.8608,870.7326
786.9231,792.1612,801.02563,751.4652
759.12085,783.69965,793.7729,657.5824
821.978,802.6374,805.05493,914.2491
790.9524,790.9524,802.6374,799.011
807.8755,807.0696,806.6667,878.3883
777.6557,799.81683,794.9817,771.2088
745.42126,783.2967,771.6117,654.35895
784.90845,796.1905,790.14655,784.10254
828.8278,811.9048,814.3223,942.0513
811.0989,794.9817,800.6227,904.9817
757.9121,757.9121,761.9414,763.95605
756.30035,771.6117,775.2381,659.59705
796.1905,794.9817,800.2198,753.8828
817.9487,795.38464,801.02563,895.31134
813.1135,802.6374,803.0403,901.75824
797.3993,804.65204,800.6227,810.696
783.69965,795.38464,790.9524,682.1612
790.9524,780.87915,777.25275,724.87177
813.1135,791.3553,785.31134,887.6557
811.0989,800.2198,801.02563,915.8608
792.1612,788.1319,792.96704,821.978
748.6447,768.3883,770.40295,663.22345
767.98535,780.87915,783.2967,705.12823
813.5165,805.05493,804.65204,896.9231
803.0403,799.011,800.6227,919.89014
783.2967,788.1319,788.93774,837.6923
767.98535,792.1612,792.1612,699.89014
815.9341,797.8022,804.65204,861.4652
828.4249,803.44324,810.293,924.3223
792.96704,801.8315,794.9817,724.0659
788.5348,792.5641,790.9524,685.78754
819.5604,778.86444,782.8938,910.6227
829.6337,796.1905,798.60803,866.30035
806.6667,771.6117,780.4762,837.6923
815.9341,803.0403,805.4579,865.09155
780.07324,795.78754,801.02563,695.05493
811.9048,794.9817,796.99634,737.76556
796.5934,795.38464,794.17584,681.3553
819.5604,801.4286,803.0403,832.8571
834.87177,806.6667,811.50183,930.7692
807.47253,788.5348,793.7729,866.7033
780.07324,786.9231,787.326,735.7509
786.1172,803.44324,792.1612,666.4469
805.05493,802.6374,795.78754,794.17584
809.89014,795.78754,798.60803,903.7729
805.8608,788.5348,796.1905,869.5238
769.19415,786.9231,787.326,653.95605
788.93774,790.9524,793.36993,757.1062
748.6447,749.0476,759.5238,724.87177
803.44324,793.7729,800.2198,882.8205
769.59705,790.54944,782.49084,658.3883
797.3993,800.6227,790.9524,753.47986
780.87915,757.9121,766.77655,867.1062
834.0659,819.9634,804.65204,916.26373
830.4396,812.71063,796.99634,909.41394
778.46155,792.5641,794.57874,776.4469
752.674,748.24176,739.3773,753.8828
720.84247,727.28937,726.8865,606.0073
790.9524,782.0879,786.52014,721.6484
824.7985,800.6227,809.4872,894.5055
822.381,803.0403,813.5165,909.81683
812.3077,806.26373,813.5165,827.2161
788.1319,801.02563,802.23444,681.75824
803.8461,805.4579,801.4286,710.3663
830.84247,806.26373,807.47253,877.98535
831.2454,801.4286,806.6667,909.81683
821.5751,811.50183,808.68134,831.6484
747.03296,774.0293,772.8205,652.3443
722.0513,738.5714,754.68866,637.03296
806.6667,786.52014,808.2784,856.63007
824.7985,801.8315,815.5311,915.4579
793.36993,789.7436,799.41394,837.28937
780.4762,793.7729,799.41394,703.1135
788.93774,795.38464,799.011,678.1319
821.978,801.8315,812.71063,850.18317
833.663,808.2784,814.7253,931.5751
804.2491,804.2491,805.8608,870.7326
783.2967,803.44324,803.44324,730.5128
776.8498,805.05493,794.9817,672.0879
749.85345,761.9414,753.0769,782.0879
776.04395,763.95605,765.56775,886.04395
825.2015,807.0696,814.3223,888.46155
796.5934,798.20514,798.20514,752.674
782.8938,788.93774,782.8938,658.7912
833.2601,807.47253,806.26373,812.3077
843.73627,805.4579,813.1135,924.7253
804.2491,810.696,803.44324,774.0293
791.75824,801.8315,796.99634,674.90845
821.978,807.8755,807.47253,798.20514
803.44324,782.49084,778.0586,886.04395
785.31134,757.1062,762.74725,844.1392
803.8461,782.0879,793.7729,789.34064
823.1868,806.26373,810.293,886.4469
786.9231,790.14655,795.78754,683.7729
802.23444,797.3993,802.23444,758.71796
826.0073,808.2784,812.3077,903.7729
826.0073,810.696,818.7546,906.5934
805.4579,804.65204,810.696,810.696
761.9414,794.57874,790.54944,664.0293
779.2674,801.8315,801.02563,729.707
820.3663,814.7253,819.5604,897.72894
808.2784,803.44324,802.6374,902.96704
771.2088,779.2674,766.77655,795.38464
778.86444,799.011,786.52014,678.5348
813.5165,814.3223,817.5458,735.7509
830.0366,798.60803,807.47253,887.25275
796.1905,774.43225,777.25275,890.4762
802.23444,794.57874,798.60803,838.0952
797.3993,803.44324,806.6667,711.5751
803.0403,799.011,799.41394,703.5165
831.2454,809.4872,809.4872,871.9414
824.7985,810.293,810.293,923.1135
813.5165,812.3077,803.44324,855.42126
765.16486,785.31134,765.9707,682.1612
757.9121,774.0293,758.71796,648.71796
818.3516,805.8608,800.6227,851.39197
820.3663,803.8461,804.65204,921.0989
775.2381,775.64105,778.0586,836.4835
773.22345,790.54944,788.5348,725.6777
796.99634,812.3077,809.89014,701.9048
812.3077,807.47253,814.3223,848.5714
822.381,805.4579,815.12823,939.2308
811.0989,802.6374,808.2784,896.1172
793.36993,806.6667,801.02563,758.315
780.4762,797.3993,786.52014,661.6117
776.4469,780.07324,778.0586,780.87915
811.9048,803.44324,804.65204,913.44324
823.5897,817.9487,815.12823,889.67035
788.1319,805.4579,796.5934,757.1062
727.28937,750.2564,756.30035,613.663
765.56775,758.315,774.83514,747.4359
832.8571,807.8755,813.91943,927.1429
825.2015,808.2784,806.26373,901.75824
796.99634,794.57874,799.011,758.315
787.326,801.02563,794.9817,674.5055
813.1135,796.5934,802.6374,896.52014
805.8608,803.44324,798.20514,789.34064
810.696,802.6374,801.4286,895.7143
802.6374,807.47253,801.02563,807.0696
788.93774,807.8755,798.60803,680.9524
761.13556,766.3736,763.1502,705.12823
765.16486,742.6007,745.0183,838.0952
822.7839,792.1612,792.96704,904.9817
818.7546,809.89014,806.26373,833.663
786.1172,801.4286,790.9524,686.5934
830.84247,805.4579,807.0696,898.93774
805.05493,803.8461,796.5934,730.10986
807.0696,798.20514,796.99634,835.6777
825.6044,803.44324,804.65204,925.9341
774.0293,792.96704,790.54944,693.44324
786.52014,801.8315,797.8022,705.12823
811.50183,801.8315,801.8315,865.09155
769.19415,760.32965,761.53845,873.95605
745.82416,745.0183,743.8095,794.57874
770.80585,780.87915,776.04395,697.0696
790.14655,798.60803,793.7729,695.8608
819.9634,804.2491,803.8461,862.27106
809.89014,804.2491,800.6227,856.2271
782.49084,797.8022,790.14655,722.0513
791.3553,801.02563,791.75824,675.31134
816.337,813.91943,808.2784,842.52747
813.5165,820.7692,815.9341,936.4103
781.685,792.96704,792.96704,861.4652
763.1502,774.83514,774.83514,720.84247
781.28204,795.38464,793.36993,662.8205
805.4579,803.0403,806.26373,805.05493
821.5751,804.2491,806.26373,915.05493
830.84247,808.68134,808.68134,922.71063
809.89014,803.44324,803.44324,877.5824
778.0586,799.41394,799.011,748.24176
757.9121,793.36993,789.34064,645.89746
779.2674,791.75824,787.326,765.56775
806.26373,800.6227,796.1905,905.78754
801.4286,799.81683,799.011,892.0879
777.6557,797.8022,794.9817,780.07324
753.47986,780.4762,771.6117,650.32965
786.52014,778.0586,779.67035,747.4359
822.7839,798.60803,807.8755,906.5934
801.4286,799.41394,809.89014,895.7143
770.40295,793.36993,803.44324,791.3553
761.13556,796.1905,800.6227,673.69965
785.31134,801.02563,809.0842,748.24176
804.65204,800.6227,813.1135,891.28204
811.0989,796.99634,812.71063,905.78754
795.38464,796.99634,810.696,814.7253
755.89746,796.1905,805.05493,675.7143
768.3883,792.1612,803.44324,723.2601
801.02563,788.5348,806.6667,884.43225
810.293,795.38464,817.5458,921.50183
794.57874,798.20514,819.15753,848.1685
775.2381,794.17584,809.0842,703.1135
803.0403,792.96704,811.50183,717.2161
824.7985,795.78754,817.5458,886.04395
814.3223,795.78754,819.15753,936.0073
810.293,792.5641,819.15753,871.13556
789.7436,786.1172,803.0403,720.4396
794.57874,793.7729,803.8461,706.337
824.3956,805.05493,818.3516,888.86444
814.3223,789.34064,803.8461,940.0366
799.011,788.1319,802.23444,749.0476
810.696,785.31134,802.23444,877.5824
792.1612,781.685,794.57874,699.4872
826.4103,788.93774,801.8315,858.24176
845.34796,801.02563,809.89014,950.9158
846.1539,803.0403,809.89014,908.20514
820.7692,793.36993,797.3993,773.6264
808.2784,794.57874,792.1612,707.9487
837.6923,803.0403,807.47253,862.27106
849.7802,805.4579,815.12823,960.58606
816.337,792.1612,793.7729,887.25275
803.44324,801.8315,798.60803,704.3223
799.41394,792.1612,788.5348,775.2381
827.619,802.23444,806.26373,819.9634
805.4579,765.9707,776.8498,896.9231
793.7729,760.32965,767.5824,866.30035
807.8755,795.38464,795.38464,798.20514
790.9524,797.8022,793.7729,691.02563
815.5311,801.02563,794.57874,780.4762
823.9927,802.23444,801.8315,911.8315
806.26373,801.02563,797.8022,898.93774
797.3993,801.02563,785.7143,802.6374
779.67035,796.99634,780.07324,680.54944
788.5348,794.9817,786.1172,743.00366
817.1429,802.6374,799.011,895.7143
808.68134,798.20514,793.36993,902.5641
738.1685,747.03296,736.55676,761.9414
717.2161,734.5421,721.6484,617.28937
792.96704,786.9231,780.4762,716.4103
840.9158,810.293,808.68134,901.75824
827.2161,805.8608,803.0403,919.0842
786.1172,803.44324,796.5934,709.15753
784.5055,789.34064,785.7143,705.9341
830.4396,806.26373,804.65204,881.6117
829.2308,818.3516,813.5165,929.15753
804.65204,810.293,801.8315,849.7802
760.7326,780.4762,769.59705,688.20514
754.2857,775.64105,766.3736,665.2381
811.9048,809.89014,803.44324,855.82416
817.5458,814.3223,807.8755,915.8608
811.50183,807.8755,803.0403,844.5421
786.9231,799.011,791.3553,839.707
774.83514,801.4286,788.93774,710.7692
786.9231,809.4872,798.60803,680.14655
807.8755,807.47253,806.6667,833.663
812.71063,801.02563,804.65204,911.4286
806.26373,801.8315,802.6374,869.92676
789.7436,807.8755,802.6374,751.06226
775.64105,796.99634,787.326,669.67035
747.4359,748.6447,751.06226,762.74725
767.5824,751.8681,765.56775,874.35895
811.9048,799.011,801.4286,882.8205
785.31134,808.68134,796.1905,768.7912
761.9414,800.2198,787.72894,673.69965
794.57874,799.81683,798.20514,801.8315
821.978,812.3077,815.12823,931.5751
796.1905,796.1905,797.8022,886.4469
783.69965,789.34064,790.14655,773.22345
790.9524,801.02563,796.5934,676.9231
813.5165,809.4872,800.6227,786.1172
803.44324,786.9231,780.4762,899.7436
790.9524,770.40295,772.8205,870.7326
807.0696,796.5934,796.5934,801.4286
791.75824,801.8315,793.7729,681.75824
807.0696,794.9817,795.78754,754.68866
820.3663,798.20514,803.44324,911.4286
806.6667,802.23444,807.47253,910.2198
786.52014,797.8022,801.4286,812.3077
766.3736,790.14655,790.9524,674.10254
806.6667,804.2491,801.8315,886.4469
812.3077,804.65204,803.0403,905.38464
781.28204,796.99634,795.78754,721.2454
757.50916,768.3883,766.77655,780.4762
725.2747,742.6007,746.2271,631.39197
791.3553,778.0586,786.9231,698.2784
831.2454,803.44324,806.6667,885.64105
834.4689,806.6667,806.6667,922.3077
815.9341,805.05493,806.6667,853.4066
786.9231,799.41394,801.8315,719.6337
786.52014,796.1905,807.47253,703.5165
814.7253,801.8315,819.5604,857.8388
824.7985,807.0696,821.5751,919.89014
802.6374,807.0696,816.337,862.674
753.8828,783.2967,784.10254,693.0403
743.00366,767.1795,771.6117,641.4652
814.7253,798.20514,811.0989,834.87177
821.978,808.2784,817.5458,912.6374
770.80585,777.6557,782.0879,829.2308
772.4176,786.1172,783.2967,718.022
793.7729,806.26373,804.2491,674.5055
832.4542,806.26373,819.9634,926.337
821.5751,803.8461,812.71063,820.3663
817.5458,805.8608,817.5458,883.6264
796.5934,801.8315,809.4872,766.3736
777.6557,795.78754,797.8022,667.6557
786.1172,785.7143,789.7436,770.40295
813.5165,798.60803,808.68134,903.7729
813.1135,808.2784,821.5751,896.9231
781.685,789.34064,799.81683,769.59705
716.0073,738.5714,747.4359,614.4689
767.5824,760.7326,774.83514,747.03296
837.28937,807.47253,818.7546,917.8755
826.4103,803.8461,812.71063,902.1612
794.9817,798.20514,803.44324,793.36993
781.685,794.9817,800.6227,665.2381
809.89014,791.75824,807.8755,738.97437
809.89014,790.14655,801.02563,881.6117
800.6227,797.3993,802.6374,892.8938
792.1612,801.02563,805.8608,804.2491
776.4469,789.7436,798.60803,672.0879
774.83514,770,780.4762,704.3223
802.23444,780.4762,786.1172,869.92676
817.9487,805.8608,812.3077,916.6667
791.75824,796.5934,809.0842,821.5751
750.65936,774.0293,789.7436,660.40295
782.0879,794.9817,808.2784,702.71063
826.8132,811.0989,826.0073,883.6264
817.9487,805.8608,819.15753,911.8315
799.011,806.26373,807.8755,836.4835
776.04395,802.6374,796.99634,701.50183
793.7729,807.8755,803.44324,703.5165
812.71063,799.011,801.02563,860.2564
763.1502,739.7802,749.85345,862.674
803.44324,809.0842,802.6374,747.03296
778.86444,755.09155,763.5531,824.7985
798.60803,809.0842,800.6227,698.2784
827.619,805.4579,809.4872,848.5714
842.1245,815.12823,818.3516,929.15753
824.3956,809.89014,812.71063,870.32965
773.6264,782.0879,782.0879,720.4396
772.8205,790.14655,783.69965,665.64105
822.7839,812.3077,804.65204,841.7216
840.9158,813.91943,809.89014,941.2454
790.54944,774.0293,774.0293,843.73627
758.315,753.47986,756.7033,704.7253
778.86444,788.5348,795.38464,664.43225
799.41394,799.81683,807.0696,800.6227
821.1722,801.4286,809.0842,906.1905
811.0989,802.6374,812.3077,880
794.17584,803.44324,807.8755,777.25275
788.1319,802.23444,799.41394,670.87915
815.5311,799.81683,808.68134,904.9817
809.4872,800.6227,811.50183,895.31134
790.9524,796.1905,805.05493,791.3553
725.6777,740.989,748.6447,707.1429
717.619,749.0476,749.85345,622.52747
835.6777,803.0403,810.696,923.91943
791.75824,796.99634,800.2198,767.1795
845.7509,813.1135,810.696,911.02563
807.8755,802.23444,796.5934,805.4579
782.8938,801.02563,797.3993,678.1319
791.3553,797.3993,800.2198,720.84247
820.7692,799.011,807.47253,881.2088
806.26373,799.81683,807.0696,899.34064
789.7436,802.23444,802.6374,826.8132
784.5055,809.4872,805.05493,715.6044
737.3626,766.3736,765.56775,684.9817
736.9597,724.87177,740.989,799.81683
805.05493,777.25275,797.8022,896.9231
805.05493,802.23444,813.5165,842.9304
782.0879,792.96704,798.20514,688.20514
792.1612,798.60803,806.6667,693.8461
809.89014,805.8608,818.7546,869.92676
801.8315,806.26373,818.7546,908.60803
761.53845,790.54944,802.23444,706.7399
770.40295,794.57874,806.6667,682.1612
796.1905,800.6227,807.8755,838.9011
780.4762,799.81683,811.9048,831.6484
746.2271,751.06226,757.9121,867.50916
730.5128,747.8388,753.47986,808.2784
767.1795,794.17584,794.9817,722.4542
767.98535,788.1319,792.5641,670.07324
785.7143,783.2967,790.54944,814.7253
815.5311,799.011,809.4872,917.47253
807.0696,799.011,807.0696,870.7326
788.1319,795.78754,793.36993,749.0476
793.36993,800.6227,799.81683,684.9817
814.3223,801.8315,811.50183,822.381
832.4542,808.2784,815.5311,934.3956
804.2491,789.7436,787.72894,874.35895
768.7912,772.4176,766.3736,749.45056
788.1319,798.20514,794.9817,681.3553
812.71063,804.65204,810.696,796.99634
824.3956,803.8461,810.696,927.9487
821.5751,807.0696,811.9048,922.71063
820.7692,813.1135,811.0989,836.08057
838.0952,806.6667,807.0696,919.89014
823.5897,810.293,814.7253,928.7546
800.6227,801.4286,800.2198,826.4103
780.87915,792.1612,777.6557,689.81683
804.2491,802.23444,790.54944,757.50916
844.94507,809.89014,807.47253,917.0696
837.28937,798.20514,794.17584,922.3077
802.6374,795.78754,787.72894,765.16486
791.75824,767.1795,763.5531,813.91943
790.9524,783.2967,778.0586,699.0842
803.44324,807.0696,795.78754,707.9487
825.6044,805.4579,805.8608,753.0769
849.7802,805.05493,814.7253,912.23444
841.7216,812.71063,815.9341,947.6923
821.5751,806.6667,807.47253,874.7619
807.8755,798.20514,801.8315,733.73627
793.7729,782.8938,786.9231,711.978
814.3223,783.2967,788.5348,870.32965
828.8278,799.81683,801.8315,931.1722
804.2491,796.5934,799.011,858.6447
772.01465,782.49084,782.0879,709.15753
780.87915,794.17584,783.69965,683.7729
823.5897,811.9048,800.2198,853.8095
824.3956,801.4286,800.6227,917.47253
804.2491,792.1612,793.7729,852.6007
786.52014,796.1905,788.1319,723.663
764.7619,792.1612,790.54944,663.22345
800.6227,795.38464,800.6227,821.1722
809.89014,800.2198,798.20514,919.4872
796.1905,799.81683,796.99634,869.12085
786.9231,797.3993,798.60803,754.2857
761.53845,781.685,789.34064,672.0879
739.3773,736.9597,757.50916,761.9414
772.01465,751.06226,772.01465,882.01465
801.8315,788.93774,798.60803,883.22345
782.8938,788.5348,787.72894,772.8205
827.2161,806.26373,812.3077,921.0989
816.7399,799.81683,806.6667,900.9524
804.2491,796.5934,799.81683,793.7729
794.57874,797.3993,796.99634,681.75824
816.337,800.2198,807.8755,785.31134
810.696,807.8755,807.0696,771.2088
781.685,790.14655,792.1612,671.28204
782.0879,777.6557,778.0586,871.13556
745.0183,745.42126,753.8828,840.5128
774.43225,790.54944,790.9524,794.9817
774.43225,807.47253,803.0403,685.38464
782.0879,796.5934,803.8461,735.7509
808.68134,801.02563,813.5165,894.10254
810.696,805.8608,816.7399,908.60803
797.8022,805.8608,813.5165,822.7839
772.4176,802.23444,804.65204,690.6227
777.6557,799.011,804.2491,723.2601
809.89014,806.26373,819.9634,884.83514
808.68134,801.8315,815.12823,905.78754
724.87177,740.58606,755.89746,779.67035
718.022,739.7802,757.9121,650.32965
788.93774,798.20514,813.91943,708.3516
803.44324,796.5934,816.337,866.30035
809.0842,789.7436,811.50183,912.6374
807.8755,803.0403,817.1429,850.989
791.75824,806.6667,808.2784,711.1722
786.1172,802.23444,808.2784,720.4396
823.1868,812.71063,818.7546,867.1062
831.2454,811.50183,822.381,929.9634
810.293,811.50183,817.1429,865.4945
780.4762,802.23444,801.8315,729.707
782.0879,795.38464,794.57874,676.52014
814.7253,800.2198,809.89014,826.8132
824.7985,809.4872,818.3516,921.50183
771.2088,767.5824,767.98535,832.8571
732.9304,744.21246,738.5714,690.6227
775.2381,789.34064,780.07324,663.6264
815.5311,806.6667,803.8461,811.0989
822.7839,799.81683,797.8022,910.2198
803.0403,797.8022,798.60803,876.77655
786.52014,799.41394,802.23444,766.77655
789.7436,804.65204,799.011,676.9231
748.6447,759.5238,759.5238,742.1978
759.12085,755.89746,765.56775,861.4652
794.9817,801.8315,804.2491,791.75824
815.9341,799.41394,809.4872,890.07324
767.1795,801.8315,797.3993,681.3553
827.619,809.4872,815.9341,915.4579
821.5751,801.02563,809.0842,910.2198
805.05493,797.3993,802.6374,821.1722
790.14655,799.011,802.23444,691.8315
797.8022,807.47253,806.26373,777.25275
811.9048,809.0842,810.696,757.50916
806.6667,787.72894,787.72894,880.40295
775.64105,757.50916,765.56775,867.50916
800.2198,790.54944,799.41394,823.9927
785.31134,802.23444,800.6227,691.4286
786.1172,798.60803,797.3993,710.7692
824.7985,803.8461,806.6667,874.35895
826.0073,804.65204,804.2491,904.9817
795.78754,798.60803,800.2198,825.6044
770.40295,790.9524,793.7729,688.20514
783.2967,790.9524,794.17584,695.4579
817.1429,801.02563,811.50183,869.12085
815.5311,799.011,810.696,913.44324
763.1502,768.3883,770.80585,817.1429
748.6447,779.2674,773.22345,696.26373
778.46155,801.4286,803.44324,700.696
796.1905,787.326,800.6227,848.97437
771.6117,755.89746,769.19415,880
788.93774,780.87915,792.1612,844.94507
798.60803,799.011,808.2784,738.5714
797.3993,791.75824,801.02563,685.78754
826.4103,803.8461,814.7253,848.1685
831.6484,808.2784,817.9487,889.67035
801.8315,796.1905,799.81683,764.35895
795.38464,794.57874,794.9817,675.7143
829.6337,804.65204,811.0989,815.5311
834.87177,810.293,821.5751,933.5897
830.84247,803.44324,813.91943,920.696
780.87915,767.5824,775.64105,850.18317
755.89746,756.7033,763.5531,726.8865
782.49084,787.326,801.8315,664.0293
808.2784,797.3993,813.91943,789.7436
816.7399,797.3993,810.696,911.8315
810.293,795.38464,810.293,885.2381
794.9817,793.7729,805.05493,780.87915
773.6264,790.54944,794.57874,667.6557
784.90845,793.36993,797.3993,754.2857
811.0989,801.4286,810.696,903.36993
815.5311,801.8315,814.3223,902.96704
785.31134,787.72894,802.6374,794.57874
739.7802,762.74725,774.43225,642.27106
763.95605,773.22345,782.49084,713.1868
808.2784,794.57874,810.293,888.0586
809.0842,797.3993,813.5165,900.9524
790.14655,796.1905,807.0696,817.5458
776.8498,794.17584,800.2198,686.99634
802.6374,796.99634,801.8315,724.0659
819.5604,796.99634,807.0696,882.01465
808.68134,799.81683,809.0842,907.3993
803.8461,805.05493,805.8608,836.08057
783.2967,800.2198,794.9817,704.3223
765.9707,778.46155,777.25275,689.011
792.1612,778.46155,783.69965,841.31866
809.4872,796.1905,802.6374,903.7729
805.4579,801.8315,802.23444,840.9158
792.96704,799.41394,792.5641,701.50183
784.90845,795.78754,794.57874,681.75824
824.7985,806.26373,805.4579,910.6227
797.8022,796.1905,796.99634,845.7509
774.0293,797.8022,789.7436,718.4249
777.25275,802.23444,794.17584,680.9524
792.5641,782.0879,788.93774,896.52014
801.8315,801.8315,802.23444,832.8571
780.07324,776.4469,784.10254,845.7509
785.7143,795.38464,791.3553,745.0183
813.1135,804.65204,805.05493,848.5714
787.326,800.2198,794.57874,680.14655
803.0403,801.02563,803.44324,806.6667
825.6044,805.05493,806.26373,913.0403
821.1722,811.0989,807.8755,879.59705
787.72894,804.2491,793.7729,754.68866
774.83514,795.38464,787.72894,668.86444
801.02563,802.6374,807.8755,793.7729
822.381,814.7253,816.337,918.2784
803.0403,799.011,799.81683,884.0293
772.8205,784.5055,784.90845,767.5824
770.80585,790.54944,788.93774,665.2381
805.4579,799.41394,801.8315,759.92676
819.5604,802.6374,807.47253,897.326
802.23444,797.8022,803.0403,889.67035
792.96704,798.20514,797.8022,786.52014
777.6557,799.81683,793.36993,668.86444
781.28204,797.8022,799.011,738.97437
799.41394,797.3993,807.8755,882.01465
799.011,794.17584,810.696,891.28204
782.49084,790.54944,800.2198,802.6374
726.08057,753.0769,755.4945,639.0476
718.022,739.7802,751.06226,669.2674
787.72894,779.67035,799.011,860.2564
802.23444,790.54944,807.8755,891.685
778.86444,786.52014,797.8022,806.6667
776.04395,792.1612,799.41394,676.1172
778.46155,791.3553,799.81683,689.81683
810.293,797.3993,810.696,864.68866
812.3077,800.6227,807.8755,919.4872
788.1319,795.78754,799.41394,847.3626
775.64105,797.3993,797.8022,708.7546
770.40295,785.7143,777.25275,678.5348
788.93774,774.43225,776.04395,825.2015
817.9487,794.17584,801.4286,910.2198
827.619,799.41394,801.8315,869.12085
806.6667,791.3553,789.7436,740.58606
808.2784,795.78754,799.011,705.5311
848.1685,806.6667,812.71063,868.71796
860.2564,812.3077,812.71063,948.9011
833.663,808.2784,805.8608,887.25275
805.05493,801.8315,797.3993,754.2857
813.91943,807.8755,796.99634,689.011
842.52747,808.68134,799.81683,827.2161
831.6484,802.6374,794.9817,925.12823
821.1722,811.50183,801.4286,893.69965
794.9817,776.8498,775.2381,772.4176
803.8461,805.05493,800.2198,776.4469
818.3516,788.1319,791.3553,906.99634
789.7436,787.72894,785.7143,671.685
828.8278,801.8315,806.6667,898.93774
807.8755,803.0403,805.8608,793.36993
794.17584,803.0403,801.02563,691.02563
816.7399,811.50183,806.26373,785.7143
837.6923,818.3516,812.3077,917.0696
829.2308,811.9048,798.60803,911.02563
808.2784,809.0842,793.7729,814.3223
792.96704,801.02563,796.5934,688.20514
817.1429,792.1612,795.78754,763.5531
818.3516,783.2967,787.72894,896.52014
816.7399,788.93774,796.1905,900.54944
821.978,800.2198,803.44324,823.5897
781.685,799.011,790.54944,689.011
781.28204,792.1612,786.1172,725.2747
812.71063,799.011,799.41394,888.0586
813.1135,808.2784,807.47253,915.8608
801.8315,804.2491,799.011,832.0513
782.0879,799.81683,789.7436,703.91943
792.1612,800.6227,792.5641,727.6923
819.15753,811.50183,807.8755,884.83514
808.2784,796.99634,798.60803,910.2198
732.9304,734.5421,736.1539,780.07324
712.381,731.7216,729.707,645.89746
790.54944,794.9817,793.7729,701.9048
837.6923,813.91943,813.91943,872.3443
838.49817,812.71063,813.1135,921.9048
826.4103,816.7399,813.91943,864.2857
806.6667,815.9341,809.4872,738.1685
777.25275,791.75824,792.1612,679.34064
805.8608,795.78754,803.8461,834.0659
838.0952,818.3516,820.3663,928.3516
822.7839,813.1135,811.9048,872.3443
787.326,794.57874,794.17584,737.76556
786.1172,795.38464,796.99634,676.52014
824.3956,812.3077,819.5604,828.4249
835.2747,817.9487,819.9634,926.7399
779.67035,781.685,779.2674,842.52747
765.56775,783.2967,784.5055,728.9011
796.99634,808.2784,807.47253,671.28204
807.8755,806.26373,813.91943,792.96704
813.91943,806.26373,811.9048,908.60803
810.293,804.65204,800.6227,881.2088
796.1905,807.47253,796.5934,785.7143
777.25275,803.0403,792.1612,678.5348
740.18317,755.89746,752.674,720.4396
746.2271,738.1685,745.82416,832.8571
801.8315,786.9231,795.38464,874.7619
803.44324,805.8608,801.02563,794.57874
782.0879,803.0403,790.9524,668.0586
801.8315,803.44324,801.4286,743.8095
835.2747,807.0696,812.71063,897.72894
833.2601,807.8755,813.1135,909.41394
809.4872,803.44324,808.2784,817.1429
790.54944,799.81683,800.6227,684.9817
824.3956,812.71063,806.6667,747.03296
826.8132,787.326,784.90845,877.1795
775.2381,753.0769,757.50916,867.1062
788.93774,788.1319,796.99634,816.337
791.3553,806.26373,811.0989,693.44324
803.0403,803.8461,809.89014,713.5897
833.663,808.68134,817.9487,875.16486
801.8315,803.0403,812.71063,836.08057
820.3663,803.8461,814.7253,903.7729
781.28204,801.4286,802.6374,704.7253
786.52014,797.3993,796.99634,700.293
817.5458,804.65204,806.6667,861.8681
818.3516,807.8755,806.6667,917.0696
760.32965,761.13556,758.71796,815.5311
734.94507,748.24176,747.03296,672.49084
785.7143,793.36993,796.1905,678.1319
809.89014,784.5055,797.3993,892.8938
817.1429,799.81683,806.6667,831.6484
810.293,792.1612,803.44324,853.00366
800.6227,797.8022,799.81683,736.9597
789.7436,794.9817,796.5934,679.34064
814.7253,803.0403,808.2784,827.2161
821.978,803.44324,809.4872,916.26373
813.1135,806.26373,804.2491,872.74725
721.6484,742.1978,738.5714,615.2747
787.326,778.86444,789.34064,778.86444
764.7619,782.8938,769.19415,727.28937
822.7839,801.4286,811.0989,909.011
807.0696,797.8022,802.6374,878.3883
788.1319,795.38464,799.81683,766.3736
777.25275,792.5641,792.96704,665.2381
805.05493,796.1905,801.8315,772.8205
810.293,786.52014,807.8755,894.10254
805.8608,790.54944,807.0696,886.04395
801.4286,801.8315,805.05493,796.5934
775.2381,795.78754,794.17584,672.49084
772.01465,783.69965,779.67035,735.7509
801.02563,793.7729,796.99634,889.67035
810.293,803.44324,806.6667,898.93774
795.38464,793.36993,789.7436,799.011
765.56775,773.6264,770,657.98535
790.54944,786.52014,793.36993,720.4396
820.3663,798.20514,811.9048,882.4176
811.9048,796.5934,803.8461,903.36993
792.1612,801.4286,798.60803,824.3956
767.5824,799.011,792.1612,683.7729
781.685,797.8022,797.8022,711.978
803.0403,794.9817,795.38464,865.4945
803.44324,792.5641,789.7436,894.90845
801.4286,802.6374,805.05493,830.84247
775.64105,799.81683,796.5934,688.60803
776.04395,788.1319,780.07324,679.34064
818.7546,797.3993,798.60803,854.21246
807.47253,804.65204,807.8755,903.7729
783.69965,801.02563,799.41394,837.6923
771.6117,792.5641,792.96704,679.34064
805.4579,798.60803,800.6227,844.1392
807.8755,800.6227,806.6667,913.0403
800.6227,803.44324,807.8755,868.315
780.87915,801.4286,797.8022,743.4066
765.16486,797.3993,793.36993,708.7546
775.2381,797.3993,790.54944,682.96704
804.2491,799.41394,797.8022,830.84247
807.8755,788.1319,795.78754,911.8315
797.8022,783.69965,795.78754,867.1062
789.7436,792.1612,797.3993,753.47986
793.36993,797.3993,794.17584,675.31134
816.7399,804.2491,805.8608,811.0989
823.1868,805.4579,810.293,923.5165
811.50183,797.3993,800.6227,882.8205
788.5348,792.1612,795.78754,771.6117
775.64105,798.20514,791.3553,673.2967
803.8461,808.2784,794.9817,784.5055
821.978,811.9048,803.44324,911.02563
795.38464,798.60803,797.8022,886.04395
763.95605,784.5055,785.7143,781.685
748.6447,786.52014,783.2967,664.43225
778.46155,790.14655,793.7729,741.79486
806.6667,794.57874,803.44324,885.2381
803.0403,802.23444,808.2784,889.67035
784.10254,801.8315,805.8608,801.4286
756.30035,793.36993,794.9817,674.5055
765.56775,794.57874,799.011,739.7802
781.685,797.3993,809.89014,885.64105
778.46155,795.78754,808.68134,901.75824
774.83514,794.9817,803.44324,826.0073
741.79486,780.87915,779.2674,664.0293
743.8095,775.64105,771.6117,676.52014
795.78754,804.2491,801.02563,885.2381
793.7729,803.8461,795.78754,850.989
779.67035,798.60803,799.81683,816.7399
761.9414,803.8461,800.2198,690.2198
765.9707,800.6227,801.4286,682.96704
796.5934,803.0403,802.6374,841.31866
799.81683,808.2784,803.8461,894.10254
786.1172,807.8755,803.8461,832.0513
772.8205,812.71063,796.1905,706.7399
758.315,796.5934,782.8938,669.2674
770.80585,783.2967,789.7436,821.5751
787.326,795.78754,805.05493,900.54944
779.67035,801.02563,799.011,838.49817
767.1795,799.011,789.34064,707.9487
761.53845,795.78754,785.7143,655.56775
779.67035,799.011,794.57874,802.23444
788.93774,799.011,797.8022,891.28204
773.6264,797.3993,791.75824,845.7509
760.7326,801.4286,788.5348,733.3333
761.53845,805.4579,792.5641,661.6117
782.49084,806.6667,799.81683,792.5641
745.0183,761.53845,755.09155,856.2271
745.82416,751.06226,749.45056,819.9634
791.3553,787.326,790.9524,756.30035
780.4762,794.17584,794.17584,671.685
793.36993,795.38464,802.6374,779.67035
815.9341,800.2198,816.337,908.20514
821.1722,803.0403,811.9048,891.28204
809.4872,798.60803,799.41394,786.9231
789.34064,798.60803,789.7436,671.685
804.2491,796.1905,789.7436,751.8681
827.619,801.4286,808.2784,902.1612
781.28204,776.04395,778.0586,869.92676
727.6923,735.7509,729.304,732.52747
770.80585,780.87915,772.8205,657.98535
819.15753,809.4872,803.44324,745.0183
815.5311,804.2491,799.011,878.7912
813.5165,808.68134,804.2491,896.1172
800.2198,804.2491,805.05493,812.71063
762.74725,794.17584,795.38464,670.07324
775.2381,792.1612,796.99634,698.68134
796.5934,795.78754,809.0842,865.4945
795.78754,800.2198,815.9341,907.8022
797.8022,794.17584,803.0403,838.9011
714.7985,744.61536,736.9597,653.5531
721.2454,748.6447,740.18317,653.5531
819.15753,805.8608,808.68134,859.45056
800.6227,790.14655,793.7729,890.87915
743.00366,747.03296,747.03296,794.57874
774.43225,784.5055,781.685,699.89014
806.26373,814.7253,807.0696,699.0842
813.1135,808.2784,805.05493,845.34796
804.2491,817.1429,807.8755,853.4066
782.0879,807.47253,796.1905,718.4249
770,795.78754,787.72894,660.40295
798.20514,803.0403,802.6374,816.337
812.3077,804.2491,808.68134,904.17584
744.21246,764.7619,766.3736,708.7546
813.1135,808.68134,810.293,867.9121
812.71063,810.696,810.696,908.60803
712.7839,743.4066,742.1978,607.2161
792.1612,801.4286,799.81683,788.5348
811.9048,813.5165,820.7692,909.011
792.1612,805.05493,814.7253,862.674
784.10254,810.696,812.3077,757.1062
777.25275,807.47253,807.8755,673.2967
800.2198,805.05493,812.3077,791.3553
838.9011,815.9341,822.381,929.9634
830.4396,818.7546,820.7692,909.41394
801.8315,816.337,815.9341,799.011
780.07324,804.2491,803.44324,682.5641
749.0476,749.85345,758.71796,727.6923
782.8938,758.315,767.5824,878.3883
823.9927,805.4579,810.293,915.8608
795.38464,795.78754,801.4286,806.26373
777.25275,782.0879,791.3553,678.1319
821.1722,801.8315,810.696,769.59705
851.79486,810.696,818.3516,919.0842
823.5897,803.8461,806.6667,913.44324
797.3993,807.8755,802.6374,834.4689
778.86444,809.89014,800.6227,707.1429
790.54944,805.05493,803.8461,736.55676
788.1319,770,776.4469,852.1978
775.2381,755.4945,769.19415,868.71796
796.5934,790.54944,803.44324,832.0513
775.2381,795.38464,801.4286,700.696
776.04395,792.1612,806.26373,705.9341
811.9048,798.20514,817.1429,874.7619
823.9927,804.2491,819.5604,921.9048
792.5641,796.5934,810.696,839.707
746.2271,774.43225,785.7143,684.57874
766.3736,787.72894,792.1612,680.14655
818.3516,807.0696,813.91943,865.4945
821.1722,803.44324,811.50183,926.7399
751.4652,749.45056,757.1062,812.71063
736.1539,745.42126,752.27106,682.5641
792.1612,796.1905,799.011,686.99634
823.1868,804.2491,811.9048,841.7216
819.9634,803.0403,812.3077,915.4579
824.3956,803.8461,814.7253,877.5824
815.5311,804.65204,808.2784,775.2381
790.9524,800.2198,791.75824,690.6227
818.3516,800.6227,798.60803,814.3223
835.6777,820.3663,809.4872,896.1172
775.2381,777.6557,771.6117,742.1978
840.9158,810.293,809.89014,928.3516
716.8132,730.9158,731.7216,605.6044
789.34064,778.86444,784.5055,774.43225
840.10986,815.9341,821.5751,939.6337
815.5311,810.293,809.89014,900.14655
789.34064,803.8461,802.23444,785.7143
778.46155,801.4286,799.81683,672.0879
802.23444,805.8608,809.0842,759.92676
812.71063,803.8461,817.5458,901.75824
794.57874,802.6374,814.7253,892.8938
788.93774,806.26373,811.50183,798.60803
782.8938,805.4579,805.4579,680.9524
751.8681,769.19415,777.6557,711.978
772.8205,765.56775,779.2674,858.6447
814.7253,795.78754,809.89014,905.38464
798.20514,792.1612,803.0403,814.7253
776.8498,784.10254,791.3553,675.31134
800.2198,792.5641,805.05493,728.9011
836.4835,803.8461,815.12823,898.93774
830.4396,806.26373,809.0842,926.7399
802.23444,799.81683,799.011,837.28937
781.28204,794.17584,792.5641,695.8608
804.2491,800.6227,795.38464,715.2015
814.3223,791.75824,785.7143,859.45056
797.3993,774.83514,772.8205,882.01465
816.7399,799.011,796.99634,847.76556
798.60803,801.8315,798.60803,722.0513
775.2381,781.28204,776.8498,682.1612
814.3223,795.78754,797.8022,852.6007
834.0659,809.4872,816.7399,932.381
807.8755,802.6374,807.0696,864.2857
775.2381,792.1612,796.99634,727.6923
781.685,788.1319,799.011,696.26373
807.47253,794.9817,810.696,848.5714
807.8755,799.81683,815.9341,923.5165
791.75824,796.99634,804.2491,866.7033
765.9707,791.75824,782.0879,659.59705
793.36993,787.72894,790.14655,796.99634
779.2674,765.9707,766.77655,874.35895
771.6117,795.78754,786.1172,733.3333
782.49084,777.25275,773.22345,850.989
802.6374,802.6374,792.1612,759.12085
783.69965,798.60803,784.10254,660.80585
799.81683,799.011,794.57874,785.31134
821.5751,805.8608,803.0403,915.8608
813.5165,805.05493,800.2198,892.8938
789.34064,795.38464,785.7143,782.8938
774.43225,794.57874,779.2674,673.2967
808.68134,803.0403,805.4579,767.1795
836.4835,807.0696,811.9048,902.5641
814.7253,795.78754,783.69965,883.6264
793.36993,796.1905,770.80585,784.10254
783.69965,801.4286,776.8498,674.5055
798.60803,797.8022,785.7143,750.2564
817.9487,799.41394,790.14655,894.10254
814.7253,801.8315,794.57874,900.14655
798.20514,799.41394,794.57874,821.5751
770.40295,788.1319,785.31134,694.65204
776.04395,788.5348,792.96704,734.94507
809.89014,801.4286,807.0696,890.87915
815.5311,805.4579,805.05493,912.6374
789.7436,798.60803,795.38464,827.619
743.00366,771.6117,772.4176,667.25275
759.5238,773.22345,779.2674,682.5641
810.696,797.8022,806.26373,863.0769
811.0989,803.8461,815.5311,909.011
787.326,801.02563,796.5934,703.91943
796.5934,801.02563,811.0989,839.304
791.75824,806.6667,798.20514,695.4579
806.26373,801.4286,805.8608,855.0183
816.7399,801.4286,813.91943,922.71063
811.50183,809.4872,818.3516,880.40295
786.9231,804.2491,803.8461,743.4066
770.80585,782.8938,785.31134,686.5934
794.9817,783.2967,793.7729,846.55676
817.5458,804.65204,814.3223,928.3516
815.5311,805.4579,809.89014,872.3443
793.7729,798.60803,798.60803,753.8828
780.4762,799.011,798.20514,691.4286
805.05493,805.4579,808.2784,825.2015
809.0842,805.05493,812.71063,909.81683
785.7143,809.4872,802.23444,765.56775
797.3993,804.65204,807.8755,869.5238
780.87915,811.9048,801.8315,686.5934
811.9048,811.50183,811.50183,809.4872
802.23444,786.1172,789.7436,901.3553
773.22345,764.7619,766.3736,856.2271
789.34064,790.14655,790.54944,777.6557
791.3553,803.0403,794.17584,681.75824
806.26373,805.8608,796.1905,779.67035
829.6337,816.7399,807.0696,915.4579
825.2015,810.293,800.6227,906.1905
809.0842,804.65204,795.78754,813.91943
794.17584,803.0403,788.93774,692.23444
811.0989,801.8315,792.5641,763.95605
842.52747,817.5458,807.47253,913.8461
807.47253,786.52014,773.22345,881.6117
772.8205,757.50916,747.4359,772.4176
789.7436,797.3993,790.54944,686.99634
796.1905,802.23444,802.6374,736.9597
780.4762,772.4176,774.83514,860.65936
796.5934,786.1172,789.7436,894.10254
802.23444,801.4286,801.4286,825.2015
780.4762,794.17584,790.9524,688.60803
791.3553,792.1612,794.9817,717.619
814.3223,799.41394,803.8461,878.7912
815.5311,807.0696,807.47253,903.7729
799.41394,806.6667,801.02563,831.2454
727.28937,759.5238,747.8388,658.3883
725.6777,751.06226,745.82416,639.0476
805.8608,790.9524,800.2198,840.9158
821.5751,803.0403,811.0989,908.60803
802.6374,799.81683,805.05493,845.34796
779.67035,791.75824,795.38464,716.8132
779.2674,793.36993,797.8022,683.7729
791.3553,784.5055,790.14655,815.9341
802.6374,784.5055,794.9817,890.87915
808.2784,802.6374,813.1135,866.30035
799.81683,811.0989,804.65204,750.65936
755.89746,777.25275,761.53845,647.50916
747.4359,750.2564,744.61536,756.7033
811.0989,797.3993,799.81683,900.14655
812.3077,811.50183,811.0989,873.1502
778.46155,797.8022,795.38464,750.2564
774.83514,798.20514,794.17584,683.7729
805.8608,803.0403,806.6667,807.47253
811.9048,795.38464,807.47253,902.96704
790.9524,781.28204,785.31134,857.03296
786.52014,789.7436,785.7143,763.95605
778.46155,799.41394,794.57874,681.3553
794.57874,793.36993,792.1612,771.2088
779.67035,764.35895,766.3736,871.13556
787.72894,782.49084,788.93774,878.7912
807.0696,809.0842,812.3077,800.6227
779.2674,787.326,788.5348,671.28204
751.4652,749.85345,756.30035,709.15753
809.0842,788.1319,792.5641,883.22345
832.8571,819.15753,817.5458,914.2491
781.28204,806.26373,804.2491,685.78754
792.96704,808.68134,807.0696,731.31866
830.4396,820.7692,821.5751,892.0879
794.57874,795.38464,796.5934,888.46155
748.24176,769.59705,766.3736,781.28204
800.6227,808.68134,807.47253,813.91943
772.01465,798.60803,794.17584,678.5348
782.8938,804.2491,805.05493,699.89014
781.28204,791.75824,796.5934,843.73627
797.3993,798.20514,806.6667,891.685
806.26373,803.0403,813.1135,826.0073
769.19415,801.8315,803.44324,691.4286
764.35895,799.011,797.8022,685.78754
800.6227,806.26373,812.3077,860.65936
805.4579,812.3077,819.9634,916.26373
778.46155,803.0403,812.3077,837.6923
745.42126,791.75824,796.1905,702.71063
761.13556,801.02563,794.9817,684.9817
807.0696,815.9341,805.4579,844.94507
810.696,810.696,804.2491,908.60803
746.63007,757.1062,757.9121,801.02563
708.7546,734.94507,740.989,650.7326
766.77655,786.52014,790.14655,650.7326
811.0989,806.6667,808.2784,815.9341
811.50183,803.44324,809.0842,906.5934
820.3663,805.8608,813.5165,879.19415
808.68134,802.6374,804.65204,767.98535
787.326,796.1905,797.8022,675.7143
811.9048,804.2491,804.2491,796.5934
826.4103,813.91943,805.05493,914.2491
817.5458,811.9048,803.44324,885.2381
753.8828,770.40295,769.19415,731.7216
707.5458,738.5714,732.9304,590.293
784.10254,783.69965,776.4469,739.7802
824.3956,803.8461,810.696,902.96704
811.50183,799.011,805.8608,893.2967
781.685,805.4579,792.1612,681.3553
786.9231,803.0403,794.17584,747.8388
808.2784,805.8608,805.8608,884.83514
799.011,807.0696,798.20514,801.4286
818.3516,807.8755,809.89014,885.64105
802.6374,811.50183,807.0696,805.8608
761.53845,799.81683,793.7729,679.34064
751.06226,745.82416,751.06226,837.28937
812.3077,801.8315,801.02563,910.2198
719.2308,745.0183,743.8095,678.93774
800.6227,806.26373,800.2198,824.7985
765.56775,786.9231,783.69965,673.2967
844.94507,801.02563,821.1722,887.6557
842.9304,806.26373,818.3516,929.9634
829.6337,807.8755,806.26373,862.674
805.05493,803.0403,796.5934,727.6923
803.0403,807.0696,799.011,722.8571
777.25275,756.30035,766.3736,865.89746
799.41394,792.5641,793.7729,842.9304
793.7729,781.28204,778.86444,839.304
785.7143,805.05493,790.54944,720.0366
796.5934,789.7436,798.20514,709.5604
778.86444,800.2198,784.5055,682.5641
810.293,803.0403,799.41394,837.6923
819.5604,803.0403,803.8461,911.8315
794.57874,797.8022,795.78754,859.0476
757.1062,778.86444,780.4762,719.6337
756.7033,783.69965,788.1319,665.64105
801.02563,806.6667,805.4579,826.4103
826.4103,817.5458,811.0989,929.5604
756.30035,765.56775,761.9414,833.2601
721.6484,746.2271,746.63007,700.293
776.8498,790.54944,788.5348,675.31134
813.1135,803.44324,800.2198,811.0989
820.3663,796.5934,802.23444,916.6667
815.5311,796.5934,810.696,892.49084
797.8022,793.7729,803.44324,782.49084
787.326,789.34064,797.8022,687.8022
849.3773,813.1135,806.6667,938.022
844.94507,823.1868,804.65204,926.7399
791.3553,798.60803,778.86444,798.20514
741.79486,759.92676,746.63007,635.42126
801.4286,783.2967,779.67035,744.21246
841.7216,805.4579,809.89014,909.011
832.8571,808.2784,811.50183,904.17584
813.1135,805.4579,804.2491,812.3077
820.7692,797.3993,805.8608,807.0696
791.3553,801.02563,796.99634,690.6227
798.60803,799.011,802.23444,740.18317
823.9927,799.41394,809.4872,889.67035
830.0366,803.0403,808.2784,914.2491
801.02563,806.26373,810.696,843.3333
767.98535,800.6227,797.3993,707.9487
764.35895,783.2967,770.80585,713.5897
807.0696,801.8315,795.78754,877.98535
806.6667,814.3223,817.9487,917.47253
777.25275,799.41394,800.6227,833.663
736.9597,769.19415,761.13556,674.10254
758.71796,777.6557,777.25275,686.99634
813.91943,806.6667,806.26373,875.16486
816.337,804.2491,800.6227,926.337
803.44324,799.011,798.20514,864.2857
792.96704,801.8315,798.60803,733.73627
799.81683,803.8461,805.4579,706.7399
817.1429,806.6667,813.91943,857.4359
826.8132,811.0989,815.12823,929.15753
824.7985,805.8608,806.6667,874.7619
809.0842,805.4579,803.44324,753.47986
761.13556,788.5348,788.93774,670.4762
757.50916,772.4176,783.69965,787.72894
805.4579,796.5934,805.8608,898.5348
807.8755,809.0842,810.696,870.32965
770.80585,798.60803,803.44324,750.65936
758.71796,793.36993,801.4286,665.64105
794.57874,801.02563,804.65204,798.20514
816.7399,805.05493,808.2784,911.02563
801.8315,798.20514,809.89014,880
779.2674,790.54944,803.0403,767.98535
764.7619,784.10254,789.7436,667.6557
781.685,782.49084,793.36993,775.64105
784.5055,770.80585,790.14655,882.01465
785.31134,774.83514,786.52014,863.47986
787.72894,793.36993,792.5641,794.57874
757.1062,784.90845,786.52014,680.14655
776.04395,782.49084,786.52014,745.42126
814.7253,799.011,801.02563,893.2967
802.6374,801.02563,806.26373,897.326
772.8205,784.90845,791.3553,796.1905
760.32965,782.49084,782.0879,671.28204
784.90845,797.3993,793.7729,741.79486
803.0403,795.78754,799.81683,890.87915
777.6557,771.2088,779.2674,881.2088
769.59705,772.8205,782.0879,803.0403
773.22345,789.34064,797.3993,695.05493
785.31134,793.36993,799.41394,721.6484
763.1502,758.71796,771.2088,827.619
759.12085,764.7619,773.6264,856.2271
783.69965,801.8315,803.44324,821.978
756.7033,792.96704,793.7729,696.26373
747.8388,775.2381,776.04395,680.9524
799.011,793.7729,801.02563,841.7216
821.978,813.5165,823.9927,912.6374
802.6374,807.47253,810.696,844.5421
718.4249,745.0183,747.8388,652.3443
726.4835,736.1539,749.85345,631.79486
809.89014,796.1905,815.9341,848.1685
813.91943,803.8461,821.1722,915.8608
804.2491,800.6227,811.0989,860.65936
823.9927,814.3223,808.68134,836.08057
827.2161,815.12823,811.50183,917.0696
811.50183,812.71063,805.05493,869.12085
792.5641,811.9048,801.02563,755.09155
753.47986,777.6557,772.8205,657.1795
795.38464,804.2491,808.2784,745.0183
799.81683,809.4872,805.05493,695.8608
742.1978,741.79486,747.4359,750.65936
801.8315,784.5055,791.75824,893.2967
811.0989,806.26373,808.2784,882.01465
779.67035,797.3993,797.3993,763.5531
781.685,801.02563,799.41394,680.14655
812.3077,810.696,810.293,802.6374
823.9927,815.12823,813.1135,915.05493
803.44324,813.91943,800.6227,872.74725
770.80585,805.8608,791.75824,765.16486
753.47986,801.02563,792.96704,660.80585
775.2381,807.47253,801.02563,751.4652
751.4652,766.3736,764.35895,845.7509
726.8865,741.39197,745.0183,827.2161
759.12085,781.685,787.72894,786.1172
749.85345,790.14655,797.8022,671.685
762.74725,786.9231,794.57874,721.6484
803.0403,802.6374,810.293,879.19415
795.38464,796.99634,794.17584,813.5165
780.07324,799.011,793.7729,688.20514
775.2381,798.60803,796.99634,716.8132
802.23444,809.89014,808.2784,873.5531
777.25275,784.5055,775.64105,868.71796
726.4835,743.4066,741.39197,761.13556
805.4579,801.8315,808.2784,894.90845
759.5238,776.04395,785.7143,678.1319
793.7729,801.4286,809.4872,716.0073
777.25275,766.3736,776.04395,837.6923
792.1612,773.6264,783.69965,882.4176
815.5311,806.26373,813.5165,846.1539
776.4469,800.6227,799.81683,705.9341
764.35895,801.02563,798.20514,674.5055
787.326,802.23444,804.2491,826.0073
805.8608,807.8755,807.0696,895.31134
789.34064,795.38464,795.78754,832.0513
720.84247,758.71796,757.9121,668.86444
744.61536,783.2967,782.49084,654.7619
805.4579,811.0989,822.7839,839.707
795.38464,791.3553,808.68134,899.7436
755.09155,764.7619,776.04395,823.9927
767.98535,789.34064,791.3553,731.7216
780.07324,802.6374,809.4872,675.7143
778.46155,782.8938,798.60803,788.1319
793.36993,778.86444,790.54944,886.04395
825.2015,806.6667,810.293,884.43225
811.9048,811.9048,810.696,781.28204
772.8205,794.57874,790.14655,672.8938
804.2491,802.6374,796.99634,791.3553
842.52747,810.696,807.47253,923.1135
833.2601,804.65204,809.4872,902.96704
772.01465,763.95605,767.5824,751.8681
748.6447,757.50916,753.0769,630.989
805.4579,795.38464,794.57874,760.32965
836.4835,804.65204,805.05493,905.38464
822.7839,799.011,801.8315,900.9524
802.23444,795.78754,792.1612,807.0696
790.14655,794.57874,792.1612,694.2491
799.41394,783.2967,792.5641,881.6117
791.75824,787.72894,797.8022,753.0769
811.0989,793.7729,801.4286,898.5348
818.7546,804.65204,810.293,839.707
794.17584,794.57874,800.2198,718.022
726.8865,726.08057,741.79486,682.96704
762.3443,731.31866,759.5238,840.5128
838.0952,795.38464,821.978,935.2015
838.9011,805.8608,819.15753,874.35895
817.5458,799.41394,807.0696,740.18317
825.2015,798.60803,808.68134,751.4652
860.65936,805.8608,815.12823,917.0696
875.56775,810.696,816.337,970.65936
872.74725,812.71063,813.1135,906.99634
852.1978,814.3223,808.68134,776.4469
861.4652,815.5311,814.3223,769.19415
861.8681,787.326,791.3553,894.90845
829.2308,751.8681,758.315,923.1135
865.4945,788.5348,795.78754,911.4286
860.65936,813.5165,810.293,799.41394
865.89746,807.47253,810.293,882.8205
867.50916,814.3223,815.5311,961.79486
844.5421,814.7253,805.8608,906.1905
815.12823,796.99634,786.9231,778.46155
814.3223,794.9817,787.72894,713.9927
850.58606,813.1135,810.696,856.2271
861.4652,816.7399,813.1135,951.31866
786.9231,762.74725,749.45056,852.6007
735.7509,726.08057,716.4103,711.5751
787.326,776.4469,772.8205,680.54944
834.0659,809.0842,806.26373,814.3223
838.0952,805.4579,799.011,734.94507
838.9011,807.8755,803.44324,929.15753
832.8571,810.293,807.47253,909.81683
813.5165,803.0403,806.6667,801.02563
789.34064,792.96704,795.38464,685.78754
817.5458,801.02563,802.6374,781.685
845.7509,813.5165,816.7399,929.5604
846.55676,821.1722,820.7692,935.2015
793.7729,782.0879,778.0586,800.2198
747.4359,751.8681,750.2564,653.5531
816.7399,796.99634,798.60803,770.40295
854.61536,809.89014,811.9048,925.9341
823.9927,786.9231,791.3553,910.6227
815.5311,793.7729,803.0403,831.6484
803.8461,798.20514,806.26373,712.381
804.65204,795.38464,802.6374,749.45056
830.0366,805.05493,813.5165,899.7436
827.2161,807.47253,812.3077,852.1978
836.4835,805.4579,814.7253,925.5311
803.44324,808.2784,804.65204,716.0073
775.2381,775.2381,775.64105,701.9048
802.6374,770.80585,779.2674,850.58606
842.1245,806.6667,811.0989,913.8461
820.3663,811.50183,812.71063,848.97437
790.9524,803.0403,800.2198,712.381
799.81683,805.4579,807.47253,706.337
816.337,803.8461,819.5604,867.50916
795.78754,791.3553,803.0403,846.9597
789.34064,803.44324,804.2491,730.5128
803.44324,790.9524,809.4872,905.38464
792.5641,805.05493,805.8608,699.0842
803.0403,792.96704,799.011,837.6923
796.99634,776.8498,787.326,892.49084
809.4872,796.5934,809.4872,871.53845
796.99634,808.68134,810.696,764.7619
788.1319,808.68134,802.6374,694.2491
811.9048,812.3077,809.89014,824.7985
824.3956,814.7253,813.5165,921.0989
810.696,810.293,809.0842,881.2088
782.8938,806.26373,796.1905,756.30035
776.4469,801.02563,794.9817,674.10254
807.47253,801.02563,806.6667,803.44324
830.84247,810.293,814.7253,922.3077
809.4872,805.8608,806.6667,887.6557
775.64105,806.26373,799.41394,690.2198
797.8022,803.8461,806.26373,783.69965
829.2308,805.4579,817.9487,915.05493
811.9048,800.2198,810.293,898.1319
784.5055,803.0403,803.0403,786.1172
777.25275,794.17584,801.02563,799.011
760.7326,788.1319,792.5641,680.54944
801.4286,801.02563,805.4579,911.8315
780.4762,797.8022,796.1905,823.5897
754.2857,785.7143,784.90845,679.34064
793.36993,794.17584,799.41394,894.10254
766.3736,784.90845,787.326,746.2271
781.685,794.57874,801.8315,732.9304
815.9341,804.2491,811.50183,891.28204
801.4286,793.7729,791.3553,896.1172
790.54944,796.1905,790.14655,823.1868
777.6557,801.4286,791.75824,703.1135
780.4762,800.6227,789.34064,717.619
805.8608,800.2198,800.6227,904.17584
805.8608,801.4286,798.20514,870.7326
792.5641,799.011,797.8022,838.9011
765.56775,791.3553,788.93774,707.5458
798.60803,797.8022,801.02563,861.06226
767.98535,790.9524,789.34064,697.47253
809.89014,799.81683,809.89014,919.4872
796.5934,796.5934,806.6667,855.0183
705.9341,728.9011,732.1245,662.4176
685.78754,704.3223,710.3663,599.15753
793.7729,778.46155,790.14655,820.7692
828.022,804.65204,815.5311,927.5458
803.44324,797.8022,807.8755,865.89746
783.69965,801.4286,804.65204,741.79486
778.86444,801.4286,800.2198,685.38464
807.8755,799.81683,805.8608,821.1722
825.2015,804.65204,812.3077,921.0989
815.12823,803.44324,811.9048,885.64105
794.9817,799.81683,813.1135,774.0293
741.79486,763.5531,772.8205,653.95605
734.1392,738.1685,743.4066,735.7509
806.6667,786.9231,793.36993,893.69965
810.293,801.02563,804.2491,878.3883
768.3883,782.49084,782.0879,754.2857
774.83514,790.9524,790.54944,667.25275
811.0989,801.8315,805.8608,776.8498
823.1868,803.44324,809.4872,911.02563
790.9524,794.9817,798.60803,803.0403
807.47253,796.1905,805.4579,899.34064
799.81683,806.26373,799.81683,765.16486
768.3883,763.95605,765.16486,865.09155
755.89746,751.06226,759.5238,858.6447
779.67035,799.41394,795.38464,688.60803
789.34064,795.38464,793.7729,808.68134
773.22345,800.2198,790.9524,686.1905
779.67035,798.20514,795.78754,732.52747
805.8608,801.4286,817.1429,886.4469
810.293,804.65204,814.7253,914.65204
785.7143,794.17584,797.3993,828.8278
762.74725,782.49084,785.7143,684.17584
781.28204,794.9817,796.99634,712.7839
810.696,812.3077,815.9341,879.59705
778.46155,774.83514,783.2967,882.4176
746.63007,751.4652,758.315,791.75824
770,792.1612,792.96704,708.7546
781.28204,799.011,803.8461,707.5458
803.0403,796.5934,806.26373,848.97437
805.4579,797.8022,808.68134,903.7729
789.34064,799.81683,807.47253,842.52747
762.74725,794.9817,794.17584,704.7253
744.61536,778.46155,781.28204,659.19415
784.5055,786.9231,802.6374,819.15753
805.05493,800.2198,817.5458,898.93774
791.3553,804.65204,815.5311,854.21246
713.1868,752.674,750.65936,680.54944
705.12823,737.76556,738.1685,615.2747
795.78754,790.9524,804.65204,812.3077
817.5458,806.26373,820.7692,909.41394
794.9817,803.8461,818.7546,865.09155
778.86444,807.0696,807.8755,753.0769
775.64105,805.8608,805.05493,672.8938
796.99634,802.6374,811.0989,795.78754
797.8022,812.3077,815.5311,879.59705
785.31134,810.696,810.293,773.6264
810.696,808.68134,812.3077,908.60803
756.7033,788.93774,783.69965,661.6117
774.0293,784.90845,788.93774,764.35895
814.7253,805.8608,819.9634,915.8608
810.696,811.50183,822.381,905.78754
752.674,772.01465,778.0586,755.4945
726.08057,755.09155,764.35895,627.3626
785.31134,792.96704,811.9048,755.09155
817.5458,800.2198,829.2308,904.57874
813.1135,803.44324,823.1868,904.17584
790.54944,810.293,813.1135,807.47253
769.59705,808.68134,806.6667,674.5055
774.83514,800.2198,806.6667,724.4689
756.30035,763.95605,781.685,839.304
765.9707,774.43225,795.38464,874.7619
783.69965,804.2491,817.1429,830.0366
757.50916,791.75824,798.20514,677.326
709.15753,741.79486,747.8388,637.4359
757.50916,764.7619,779.67035,821.5751
793.7729,800.6227,821.1722,893.2967
758.71796,790.9524,807.0696,806.6667
751.8681,792.1612,801.02563,687.8022
778.46155,799.41394,804.65204,702.3077
808.2784,805.4579,815.5311,861.06226
808.68134,799.011,810.293,905.38464
808.68134,803.0403,803.8461,851.39197
790.9524,798.20514,795.78754,724.0659
794.17584,796.1905,804.2491,698.68134
777.6557,765.9707,778.86444,811.9048
753.47986,736.55676,740.989,850.18317
814.7253,785.31134,789.7436,863.8828
815.9341,805.4579,810.293,767.98535
838.0952,803.8461,811.9048,849.7802
799.41394,795.78754,797.3993,701.9048
848.5714,807.0696,820.7692,943.2601
823.9927,799.81683,811.50183,889.2674
807.0696,797.8022,803.8461,776.04395
806.26373,799.011,801.02563,708.7546
837.28937,803.44324,805.8608,830.4396
